# scan = 241
# date = 3/13/2016
# time = 11:18:37 AM
# proposal = IPTS-15083.1
# experiment = Evolution of the magnetic structure with applied field in multiferroic (ND4)2[FeCl5(D2O)]
# experiment_number = 718
# command = scan h 0 k 1 l -0.04 0.35 0.002 preset mcu 10
# builtin_command = scan h 0 k 1 l -0.04 0.35 0.002 preset mcu 10
# users = Wei Tian, Jaime Fernandez-Baca, Huibo Cao
# local_contact = Wei Tian
# scan_title = scan (0 1 L), 1.5K, 5.4 T
# monochromator = PG002
# analyzer = Pg002
# sense = +-+
# collimation = 40-40-40-60
# samplename = (ND4)2[FeCl5(D2O)]
# sampletype = crystal
# samplemosaic = 30.000000
# latticeconstants = 13.659912,9.922999,6.896657,90.000000,90.000000,90.000000
# ubmatrix = -0.002420,0.072257,0.100960,-0.003695,0.069997,-0.104056,-0.073074,-0.005932,0.001919
# mode = 0
# plane_normal = 0.033051,0.050478,0.998178
# ubconf = UB11Mar2016_12747PM.ini
# preset_type = normal 
# preset_channel = mcu
# preset_value = 10.000000
# def_x = l
# def_y = detector
# col_headers = 
#   Pt.          h          k          l       time   detector    monitor        mcu         m2      mag_e         s1         s2        sgl        sgu         a1         a2          q         ei         ef          e    coldtip    tsample       temp persistent_field
      1     0.0001     1.0004    -0.0400     10.248    151.000 259617.000     10.000    41.2634     0.0000   -54.3131   -13.7131    -1.9008     2.8951    20.6309    41.2644     0.6345    14.6339    14.6332     0.0007     1.5500     1.7240     1.0000     5.600
      2    -0.0000     1.0004    -0.0380     10.253    137.000 259617.000     10.000    41.2634     0.0000   -54.1476   -13.7101    -1.8960     2.8916    20.6309    41.2644     0.6344    14.6339    14.6332     0.0007     1.5498     1.7217     1.0000     5.600
      3    -0.0007     1.0002    -0.0360     10.220    150.000 259617.000     10.000    41.2634     0.0000   -53.9822   -13.7052    -1.8621     2.8872    20.6309    41.2644     0.6342    14.6339    14.6332     0.0007     1.5485     1.7127     1.0000     5.600
      4    -0.0001     1.0003    -0.0340     10.248    204.000 259617.000     10.000    41.2634     0.0000   -53.8167   -13.7052    -1.8989     2.8854    20.6309    41.2644     0.6342    14.6339    14.6332     0.0007     1.5483     1.7193     1.0000     5.600
      5    -0.0002     1.0003    -0.0320     10.250    207.000 259617.000     10.000    41.2634     0.0000   -53.6513   -13.7032    -1.8922     2.8860    20.6309    41.2644     0.6341    14.6339    14.6332     0.0007     1.5489     1.7215     1.0000     5.600
      6    -0.0002     1.0004    -0.0300     10.226    160.000 259617.000     10.000    41.2634     0.0000   -53.4859   -13.7022    -1.8877     2.8868    20.6309    41.2644     0.6340    14.6339    14.6332     0.0007     1.5484     1.7118     1.0000     5.600
      7    -0.0000     1.0003    -0.0280     10.168    167.000 259617.000     10.000    41.2634     0.0000   -53.3204   -13.6993    -1.8944     2.8936    20.6309    41.2644     0.6339    14.6339    14.6332     0.0007     1.5485     1.7131     1.0000     5.600
      8    -0.0006     1.0003    -0.0260     10.220    190.000 259617.000     10.000    41.2634     0.0000   -53.1551   -13.6983    -1.8650     2.8910    20.6309    41.2644     0.6338    14.6339    14.6332     0.0007     1.5478     1.7141     1.0000     5.600
      9    -0.0000     1.0003    -0.0240     10.286    189.000 259617.000     10.000    41.2634     0.0000   -52.9897   -13.6963    -1.8923     2.8947    20.6309    41.2644     0.6337    14.6339    14.6332     0.0007     1.5489     1.7202     1.0000     5.600
     10     0.0004     1.0004    -0.0220     10.280    224.000 259617.000     10.000    41.2634     0.0000   -52.8243   -13.6973    -1.9195     2.8936    20.6309    41.2644     0.6338    14.6339    14.6332     0.0007     1.5478     1.7140     1.0000     5.600
     11    -0.0002     1.0002    -0.0200     10.265    217.000 259617.000     10.000    41.2634     0.0000   -52.6590   -13.6924    -1.8952     2.8851    20.6309    41.2644     0.6336    14.6339    14.6332     0.0007     1.5485     1.7191     1.0000     5.600
     12    -0.0001     1.0001    -0.0180     10.206    270.000 259617.000     10.000    41.2634     0.0000   -52.4937   -13.6904    -1.8930     2.8914    20.6309    41.2644     0.6335    14.6339    14.6332     0.0007     1.5479     1.7161     1.0000     5.600
     13     0.0000     1.0004    -0.0160     10.271    445.000 259617.000     10.000    41.2634     0.0000   -52.3285   -13.6934    -1.8935     2.8959    20.6309    41.2644     0.6336    14.6339    14.6332     0.0007     1.5477     1.7167     1.0000     5.600
     14    -0.0005     1.0003    -0.0140     10.269    755.000 259617.000     10.000    41.2634     0.0000   -52.1632   -13.6914    -1.8639     2.8937    20.6309    41.2644     0.6335    14.6339    14.6332     0.0007     1.5486     1.7171     1.0000     5.600
     15    -0.0001     1.0002    -0.0120     10.260    681.000 259617.000     10.000    41.2634     0.0000   -51.9980   -13.6894    -1.8908     2.8945    20.6309    41.2644     0.6334    14.6339    14.6332     0.0007     1.5477     1.7148     1.0000     5.600
     16    -0.0003     1.0005    -0.0100     10.256    910.000 259617.000     10.000    41.2634     0.0000   -51.8329   -13.6924    -1.8777     2.8919    20.6309    41.2644     0.6336    14.6339    14.6332     0.0007     1.5483     1.7150     1.0000     5.600
     17     0.0000     1.0002    -0.0080     10.225   2044.000 259617.000     10.000    41.2634     0.0000   -51.6678   -13.6885    -1.8939     2.8952    20.6309    41.2644     0.6334    14.6339    14.6332     0.0007     1.5497     1.7243     1.0000     5.600
     18    -0.0001     1.0003    -0.0060     10.196   8883.000 259617.000     10.000    41.2634     0.0000   -51.5027   -13.6894    -1.8963     2.8891    20.6309    41.2644     0.6334    14.6339    14.6332     0.0007     1.5486     1.7224     1.0000     5.600
     19     0.0005     1.0000    -0.0040     10.266  19711.000 259617.000     10.000    41.2634     0.0000   -51.3377   -13.6845    -1.9294     2.8912    20.6309    41.2644     0.6332    14.6339    14.6332     0.0007     1.5480     1.7169     1.0000     5.600
     20     0.0000     1.0001    -0.0020     10.250  38319.000 259617.000     10.000    41.2634     0.0000   -51.1728   -13.6865    -1.8986     2.8920    20.6309    41.2644     0.6333    14.6339    14.6332     0.0007     1.5488     1.7198     1.0000     5.600
     21     0.0001     1.0002     0.0000     10.251  45666.000 259617.000     10.000    41.2634     0.0000   -51.0079   -13.6865    -1.9005     2.8913    20.6309    41.2644     0.6333    14.6339    14.6332     0.0007     1.5481     1.7200     1.0000     5.600
     22    -0.0005     1.0002     0.0020     10.239  30774.000 259617.000     10.000    41.2634     0.0000   -50.8430   -13.6875    -1.8624     2.8951    20.6309    41.2644     0.6333    14.6339    14.6332     0.0007     1.5479     1.7109     1.0000     5.600
     23    -0.0000     1.0001     0.0040     10.273  16743.000 259617.000     10.000    41.2634     0.0000   -50.6782   -13.6865    -1.8952     2.8928    20.6309    41.2644     0.6333    14.6339    14.6332     0.0007     1.5477     1.7164     1.0000     5.600
     24    -0.0001     1.0002     0.0060     10.244  12650.000 259617.000     10.000    41.2634     0.0000   -50.5135   -13.6875    -1.8920     2.8911    20.6309    41.2644     0.6333    14.6339    14.6332     0.0007     1.5475     1.7134     1.0000     5.600
     25    -0.0006     1.0004     0.0080     10.238   7558.000 259617.000     10.000    41.2634     0.0000   -50.3488   -13.6914    -1.8588     2.8933    20.6309    41.2644     0.6335    14.6339    14.6332     0.0007     1.5480     1.7136     1.0000     5.600
     26    -0.0001     1.0003     0.0100     10.229   1977.000 259617.000     10.000    41.2634     0.0000   -50.1842   -13.6894    -1.8923     2.8907    20.6309    41.2644     0.6334    14.6339    14.6332     0.0007     1.5475     1.7130     1.0000     5.600
     27    -0.0007     1.0003     0.0120     10.267    663.000 259617.000     10.000    41.2634     0.0000   -50.0197   -13.6904    -1.8610     2.8899    20.6309    41.2644     0.6335    14.6339    14.6332     0.0007     1.5488     1.7117     1.0000     5.600
     28     0.0001     1.0003     0.0140     10.284    473.000 259617.000     10.000    41.2634     0.0000   -49.8553   -13.6914    -1.8990     2.8930    20.6309    41.2644     0.6335    14.6339    14.6332     0.0007     1.5477     1.7166     1.0000     5.600
     29    -0.0005     1.0003     0.0160     10.226    363.000 259617.000     10.000    41.2634     0.0000   -49.6909   -13.6924    -1.8696     2.8918    20.6309    41.2644     0.6336    14.6339    14.6332     0.0007     1.5485     1.7216     1.0000     5.600
     30    -0.0001     1.0005     0.0180     10.246    279.000 259617.000     10.000    41.2634     0.0000   -49.5266   -13.6953    -1.8922     2.8919    20.6309    41.2644     0.6337    14.6339    14.6332     0.0007     1.5483     1.7165     1.0000     5.600
     31     0.0000     1.0002     0.0200     10.237    221.000 259617.000     10.000    41.2634     0.0000   -49.3624   -13.6934    -1.8990     2.8920    20.6309    41.2644     0.6336    14.6339    14.6332     0.0007     1.5475     1.7133     1.0000     5.600
     32     0.0005     1.0003     0.0220     10.283    189.000 259617.000     10.000    41.2634     0.0000   -49.1983   -13.6953    -1.9270     2.8899    20.6309    41.2644     0.6337    14.6339    14.6332     0.0007     1.5482     1.7151     1.0000     5.600
     33    -0.0000     1.0000     0.0240     10.236    202.000 259617.000     10.000    41.2634     0.0000   -49.0342   -13.6924    -1.8979     2.8897    20.6309    41.2644     0.6336    14.6339    14.6332     0.0007     1.5473     1.7141     1.0000     5.600
     34    -0.0001     0.9999     0.0260     10.251    195.000 259617.000     10.000    41.2634     0.0000   -48.8703   -13.6924    -1.8906     2.8929    20.6309    41.2644     0.6336    14.6339    14.6332     0.0007     1.5477     1.7165     1.0000     5.600
     35     0.0000     0.9998     0.0280     10.274    182.000 259617.000     10.000    41.2634     0.0000   -48.7064   -13.6924    -1.8958     2.8960    20.6309    41.2644     0.6336    14.6339    14.6332     0.0007     1.5472     1.7125     1.0000     5.600
     36     0.0001     0.9997     0.0300     10.237    160.000 259617.000     10.000    41.2634     0.0000   -48.5427   -13.6924    -1.9004     2.8948    20.6309    41.2644     0.6336    14.6339    14.6332     0.0007     1.5482     1.7181     1.0000     5.600
     37    -0.0001     0.9995     0.0319     10.191    141.000 259617.000     10.000    41.2634     0.0000   -48.3790   -13.6924    -1.8916     2.8914    20.6309    41.2644     0.6336    14.6339    14.6332     0.0007     1.5475     1.7144     1.0000     5.600
     38    -0.0013     0.9994     0.0339     10.219    160.000 259617.000     10.000    41.2634     0.0000   -48.2154   -13.6924    -1.8311     2.8864    20.6309    41.2644     0.6336    14.6339    14.6332     0.0007     1.5477     1.7123     1.0000     5.600
     39    -0.0000     1.0000     0.0360     10.251    169.000 259617.000     10.000    41.2634     0.0000   -48.0520   -13.7022    -1.8996     2.8881    20.6309    41.2644     0.6340    14.6339    14.6332     0.0007     1.5477     1.7124     1.0000     5.600
     40    -0.0021     0.9998     0.0380     10.215    135.000 259617.000     10.000    41.2634     0.0000   -47.8886   -13.7022    -1.7854     2.8871    20.6309    41.2644     0.6340    14.6339    14.6332     0.0007     1.5472     1.7108     1.0000     5.600
     41    -0.0001     0.9996     0.0400     10.249    149.000 259617.000     10.000    41.2634     0.0000   -47.7253   -13.7022    -1.8912     2.8904    20.6309    41.2644     0.6340    14.6339    14.6332     0.0007     1.5479     1.7173     1.0000     5.600
     42     0.0001     0.9995     0.0419     10.251    146.000 259617.000     10.000    41.2634     0.0000   -47.5622   -13.7022    -1.9051     2.8893    20.6309    41.2644     0.6340    14.6339    14.6332     0.0007     1.5479     1.7178     1.0000     5.600
     43     0.0000     0.9993     0.0439     10.277    152.000 259617.000     10.000    41.2634     0.0000   -47.3992   -13.7022    -1.9006     2.8903    20.6309    41.2644     0.6340    14.6339    14.6332     0.0007     1.5478     1.7089     1.0000     5.600
     44    -0.0005     1.0000     0.0460     10.230    159.000 259617.000     10.000    41.2634     0.0000   -47.2363   -13.7140    -1.8717     2.8924    20.6309    41.2644     0.6346    14.6339    14.6332     0.0007     1.5468     1.7115     1.0000     5.600
     45     0.0000     0.9998     0.0480     10.276    166.000 259617.000     10.000    41.2634     0.0000   -47.0735   -13.7140    -1.8973     2.8934    20.6309    41.2644     0.6346    14.6339    14.6332     0.0007     1.5474     1.7171     1.0000     5.600
     46    -0.0010     0.9996     0.0499     10.240    140.000 259617.000     10.000    41.2634     0.0000   -46.9108   -13.7140    -1.8462     2.8896    20.6309    41.2644     0.6346    14.6339    14.6332     0.0007     1.5463     1.7034     1.0000     5.600
     47    -0.0000     0.9994     0.0519     10.258    121.000 259617.000     10.000    41.2634     0.0000   -46.7483   -13.7140    -1.8986     2.8865    20.6309    41.2644     0.6346    14.6339    14.6332     0.0007     1.5474     1.7154     1.0000     5.600
     48    -0.0002     1.0000     0.0540     10.280    148.000 259617.000     10.000    41.2634     0.0000   -46.5858   -13.7259    -1.8910     2.8878    20.6309    41.2644     0.6351    14.6339    14.6332     0.0007     1.5485     1.7192     1.0000     5.600
     49    -0.0004     0.9998     0.0560     10.249    155.000 259617.000     10.000    41.2634     0.0000   -46.4236   -13.7259    -1.8792     2.8891    20.6309    41.2644     0.6351    14.6339    14.6332     0.0007     1.5476     1.7126     1.0000     5.600
     50    -0.0001     0.9995     0.0579     10.218    147.000 259617.000     10.000    41.2634     0.0000   -46.2614   -13.7259    -1.8984     2.8856    20.6309    41.2644     0.6351    14.6339    14.6332     0.0007     1.5479     1.7176     1.0000     5.600
     51    -0.0001     0.9993     0.0599     10.239    128.000 259617.000     10.000    41.2634     0.0000   -46.0994   -13.7259    -1.8919     2.8922    20.6309    41.2644     0.6351    14.6339    14.6332     0.0007     1.5469     1.7117     1.0000     5.600
     52     0.0001     1.0000     0.0620     10.236    110.000 259617.000     10.000    41.2634     0.0000   -45.9375   -13.7387    -1.9006     2.8939    20.6309    41.2644     0.6357    14.6339    14.6332     0.0007     1.5470     1.7129     1.0000     5.600
     53     0.0001     0.9997     0.0640     10.242    141.000 259617.000     10.000    41.2634     0.0000   -45.7757   -13.7387    -1.8897     2.9067    20.6309    41.2644     0.6357    14.6339    14.6332     0.0007     1.5473     1.7170     1.0000     5.600
     54    -0.0012     0.9995     0.0659     10.224    147.000 259617.000     10.000    41.2634     0.0000   -45.6141   -13.7387    -1.8286     2.8994    20.6309    41.2644     0.6357    14.6339    14.6332     0.0007     1.5472     1.7094     1.0000     5.600
     55     0.0001     1.0000     0.0680     10.233    124.000 259617.000     10.000    41.2634     0.0000   -45.4527   -13.7505    -1.8928     2.9016    20.6309    41.2644     0.6362    14.6339    14.6332     0.0007     1.5471     1.7102     1.0000     5.600
     56    -0.0007     0.9997     0.0700     10.206    143.000 259617.000     10.000    41.2634     0.0000   -45.2914   -13.7505    -1.8510     2.9006    20.6309    41.2644     0.6362    14.6339    14.6332     0.0007     1.5475     1.7041     1.0000     5.600
     57    -0.0002     0.9995     0.0719     10.197    169.000 259617.000     10.000    41.2634     0.0000   -45.1302   -13.7505    -1.8878     2.8918    20.6309    41.2644     0.6362    14.6339    14.6332     0.0007     1.5470     1.7137     1.0000     5.600
     58    -0.0001     1.0001     0.0740     10.261    140.000 259617.000     10.000    41.2634     0.0000   -44.9692   -13.7633    -1.8947     2.8903    20.6309    41.2644     0.6368    14.6339    14.6332     0.0007     1.5470     1.7162     1.0000     5.600
     59    -0.0000     0.9998     0.0760     10.251    142.000 259617.000     10.000    41.2634     0.0000   -44.8083   -13.7633    -1.8915     2.8958    20.6309    41.2644     0.6368    14.6339    14.6332     0.0007     1.5475     1.7216     1.0000     5.600
     60    -0.0003     0.9995     0.0779     10.246    169.000 259617.000     10.000    41.2634     0.0000   -44.6476   -13.7633    -1.8793     2.8934    20.6309    41.2644     0.6368    14.6339    14.6332     0.0007     1.5472     1.7122     1.0000     5.600
     61    -0.0002     1.0000     0.0800     10.267    159.000 259617.000     10.000    41.2634     0.0000   -44.4871   -13.7751    -1.8955     2.8817    20.6309    41.2644     0.6374    14.6339    14.6332     0.0007     1.5480     1.7181     1.0000     5.600
     62    -0.0006     0.9997     0.0819     10.223    161.000 259617.000     10.000    41.2634     0.0000   -44.3267   -13.7751    -1.8763     2.8784    20.6309    41.2644     0.6374    14.6339    14.6332     0.0007     1.5481     1.7147     1.0000     5.600
     63     0.0002     0.9993     0.0839     10.257    124.000 259617.000     10.000    41.2634     0.0000   -44.1665   -13.7751    -1.9045     2.8928    20.6309    41.2644     0.6374    14.6339    14.6332     0.0007     1.5472     1.7109     1.0000     5.600
     64    -0.0001     1.0000     0.0860     10.264    116.000 259617.000     10.000    41.2634     0.0000   -44.0064   -13.7898    -1.8888     2.8946    20.6309    41.2644     0.6380    14.6339    14.6332     0.0007     1.5469     1.7125     1.0000     5.600
     65    -0.0001     0.9997     0.0879     10.269    139.000 259617.000     10.000    41.2634     0.0000   -43.8466   -13.7898    -1.8963     2.8880    20.6309    41.2644     0.6380    14.6339    14.6332     0.0007     1.5471     1.7132     1.0000     5.600
     66    -0.0001     0.9993     0.0899     10.242    141.000 259617.000     10.000    41.2634     0.0000   -43.6869   -13.7898    -1.8927     2.8905    20.6309    41.2644     0.6380    14.6339    14.6332     0.0007     1.5476     1.7180     1.0000     5.600
     67    -0.0021     0.9999     0.0920     10.266    170.000 259617.000     10.000    41.2634     0.0000   -43.5273   -13.8036    -1.7904     2.8911    20.6309    41.2644     0.6387    14.6339    14.6332     0.0007     1.5469     1.7088     1.0000     5.600
     68    -0.0000     0.9996     0.0939     10.300    136.000 259617.000     10.000    41.2634     0.0000   -43.3680   -13.8036    -1.8932     2.8947    20.6309    41.2644     0.6387    14.6339    14.6332     0.0007     1.5479     1.7156     1.0000     5.600
     69    -0.0000     1.0000     0.0960     10.284    146.000 259617.000     10.000    41.2634     0.0000   -43.2088   -13.8144    -1.8944     2.8934    20.6309    41.2644     0.6392    14.6339    14.6332     0.0007     1.5481     1.7148     1.0000     5.600
     70    -0.0007     0.9996     0.0979     10.252    169.000 259617.000     10.000    41.2634     0.0000   -43.0498   -13.8144    -1.8570     2.8942    20.6309    41.2644     0.6392    14.6339    14.6332     0.0007     1.5482     1.7209     1.0000     5.600
     71    -0.0000     1.0000     0.1000     10.220    139.000 259617.000     10.000    41.2634     0.0000   -42.8910   -13.8263    -1.8985     2.8876    20.6309    41.2644     0.6397    14.6339    14.6332     0.0007     1.5473     1.7187     1.0000     5.600
     72    -0.0000     0.9996     0.1019     10.231    157.000 259617.000     10.000    41.2634     0.0000   -42.7324   -13.8263    -1.8951     2.8919    20.6309    41.2644     0.6397    14.6339    14.6332     0.0007     1.5486     1.7229     1.0000     5.600
     73    -0.0019     1.0000     0.1040     10.221    147.000 259617.000     10.000    41.2634     0.0000   -42.5739   -13.8371    -1.8032     2.8853    20.6309    41.2644     0.6402    14.6339    14.6332     0.0007     1.5486     1.7110     1.0000     5.600
     74    -0.0001     0.9996     0.1059     10.247    144.000 259617.000     10.000    41.2634     0.0000   -42.4157   -13.8371    -1.8922     2.8871    20.6309    41.2644     0.6402    14.6339    14.6332     0.0007     1.5469     1.7134     1.0000     5.600
     75    -0.0010     1.0000     0.1080     10.270    143.000 259617.000     10.000    41.2634     0.0000   -42.2577   -13.8489    -1.8514     2.8856    20.6309    41.2644     0.6408    14.6339    14.6332     0.0007     1.5485     1.7170     1.0000     5.600
     76    -0.0000     0.9995     0.1099     10.278    145.000 259617.000     10.000    41.2634     0.0000   -42.0998   -13.8489    -1.8967     2.8884    20.6309    41.2644     0.6408    14.6339    14.6332     0.0007     1.5474     1.7133     1.0000     5.600
     77     0.0004     1.0001     0.1120     10.277    156.000 259617.000     10.000    41.2634     0.0000   -41.9421   -13.8627    -1.9154     2.8943    20.6309    41.2644     0.6414    14.6339    14.6332     0.0007     1.5470     1.7128     1.0000     5.600
     78     0.0000     0.9996     0.1139     10.295    141.000 259617.000     10.000    41.2634     0.0000   -41.7847   -13.8627    -1.8948     2.8945    20.6309    41.2644     0.6414    14.6339    14.6332     0.0007     1.5473     1.7114     1.0000     5.600
     79    -0.0001     0.9999     0.1160     10.231    168.000 259617.000     10.000    41.2634     0.0000   -41.6274   -13.8735    -1.8930     2.8922    20.6309    41.2644     0.6419    14.6339    14.6332     0.0007     1.5482     1.7149     1.0000     5.600
     80    -0.0000     0.9995     0.1179     10.269    155.000 259617.000     10.000    41.2634     0.0000   -41.4704   -13.8735    -1.8926     2.8948    20.6309    41.2644     0.6419    14.6339    14.6332     0.0007     1.5481     1.7132     1.0000     5.600
     81    -0.0006     1.0001     0.1200     10.264    140.000 259617.000     10.000    41.2634     0.0000   -41.3135   -13.8892    -1.8678     2.8917    20.6309    41.2644     0.6426    14.6339    14.6332     0.0007     1.5473     1.7093     1.0000     5.600
     82     0.0000     0.9996     0.1219     10.249    145.000 259617.000     10.000    41.2634     0.0000   -41.1569   -13.8892    -1.8965     2.8926    20.6309    41.2644     0.6426    14.6339    14.6332     0.0007     1.5482     1.7161     1.0000     5.600
     83    -0.0019     1.0000     0.1240     10.261    119.000 259617.000     10.000    41.2634     0.0000   -41.0005   -13.9011    -1.8022     2.8883    20.6309    41.2644     0.6432    14.6339    14.6332     0.0007     1.5486     1.7141     1.0000     5.600
     84    -0.0001     0.9995     0.1259     10.263    145.000 259617.000     10.000    41.2634     0.0000   -40.8443   -13.9011    -1.8910     2.8896    20.6309    41.2644     0.6432    14.6339    14.6332     0.0007     1.5477     1.7177     1.0000     5.600
     85    -0.0006     1.0001     0.1280     10.229    152.000 259617.000     10.000    41.2634     0.0000   -40.6883   -13.9168    -1.8660     2.8929    20.6309    41.2644     0.6439    14.6339    14.6332     0.0007     1.5471     1.7111     1.0000     5.600
     86     0.0001     0.9996     0.1299     10.259    175.000 259617.000     10.000    41.2634     0.0000   -40.5325   -13.9168    -1.8986     2.8950    20.6309    41.2644     0.6439    14.6339    14.6332     0.0007     1.5477     1.7134     1.0000     5.600
     87     0.0011     1.0000     0.1320     10.234    148.000 259617.000     10.000    41.2634     0.0000   -40.3769   -13.9296    -1.9516     2.8888    20.6309    41.2644     0.6445    14.6339    14.6332     0.0007     1.5479     1.7073     1.0000     5.600
     88     0.0000     0.9994     0.1339     10.230    164.000 259617.000     10.000    41.2634     0.0000   -40.2216   -13.9296    -1.8970     2.8924    20.6309    41.2644     0.6445    14.6339    14.6332     0.0007     1.5470     1.7102     1.0000     5.600
     89    -0.0016     0.9999     0.1360     10.218    167.000 259617.000     10.000    41.2634     0.0000   -40.0665   -13.9444    -1.8181     2.8889    20.6309    41.2644     0.6452    14.6339    14.6332     0.0007     1.5479     1.7142     1.0000     5.600
     90    -0.0002     0.9994     0.1379     10.254    155.000 259617.000     10.000    41.2634     0.0000   -39.9116   -13.9444    -1.8883     2.8903    20.6309    41.2644     0.6452    14.6339    14.6332     0.0007     1.5474     1.7117     1.0000     5.600
     91    -0.0005     1.0000     0.1400     10.276    134.000 259617.000     10.000    41.2634     0.0000   -39.7570   -13.9611    -1.8719     2.8913    20.6309    41.2644     0.6459    14.6339    14.6332     0.0007     1.5477     1.7140     1.0000     5.600
     92    -0.0000     0.9995     0.1419     10.226    136.000 259617.000     10.000    41.2634     0.0000   -39.6025   -13.9611    -1.8940     2.8934    20.6309    41.2644     0.6459    14.6339    14.6332     0.0007     1.5473     1.7123     1.0000     5.600
     93    -0.0016     1.0000     0.1440     10.223    148.000 259617.000     10.000    41.2634     0.0000   -39.4483   -13.9768    -1.8205     2.8901    20.6309    41.2644     0.6467    14.6339    14.6332     0.0007     1.5474     1.7147     1.0000     5.600
     94     0.0001     0.9995     0.1459     10.256    149.000 259617.000     10.000    41.2634     0.0000   -39.2944   -13.9768    -1.8994     2.8952    20.6309    41.2644     0.6467    14.6339    14.6332     0.0007     1.5475     1.7178     1.0000     5.600
     95    -0.0022     1.0000     0.1480     10.228    160.000 259617.000     10.000    41.2634     0.0000   -39.1406   -13.9926    -1.7959     2.8858    20.6309    41.2644     0.6474    14.6339    14.6332     0.0007     1.5481     1.7164     1.0000     5.600
     96    -0.0021     0.9994     0.1499     10.277    146.000 259617.000     10.000    41.2634     0.0000   -38.9872   -13.9926    -1.7973     2.8877    20.6309    41.2644     0.6474    14.6339    14.6332     0.0007     1.5468     1.7049     1.0000     5.600
     97    -0.0001     1.0000     0.1520     10.264    151.000 259617.000     10.000    41.2634     0.0000   -38.8339   -14.0093    -1.8897     2.8916    20.6309    41.2644     0.6482    14.6339    14.6332     0.0007     1.5469     1.7115     1.0000     5.600
     98    -0.0006     0.9994     0.1539     10.238    169.000 259617.000     10.000    41.2634     0.0000   -38.6809   -14.0093    -1.8679     2.8890    20.6309    41.2644     0.6482    14.6339    14.6332     0.0007     1.5467     1.7043     1.0000     5.600
     99     0.0001     1.0000     0.1560     10.278    160.000 259617.000     10.000    41.2634     0.0000   -38.5282   -14.0261    -1.9013     2.8929    20.6309    41.2644     0.6489    14.6339    14.6332     0.0007     1.5472     1.7128     1.0000     5.600
    100    -0.0009     0.9994     0.1578     10.212    168.000 259617.000     10.000    41.2634     0.0000   -38.3756   -14.0261    -1.8550     2.8877    20.6309    41.2644     0.6489    14.6339    14.6332     0.0007     1.5479     1.7113     1.0000     5.600
    101    -0.0001     1.0001     0.1600     10.221    150.000 259617.000     10.000    41.2634     0.0000   -38.2234   -14.0457    -1.8958     2.8861    20.6309    41.2644     0.6498    14.6339    14.6332     0.0007     1.5474     1.7098     1.0000     5.600
    102    -0.0014     0.9995     0.1619     10.234    149.000 259617.000     10.000    41.2634     0.0000   -38.0714   -14.0457    -1.8353     2.8829    20.6309    41.2644     0.6498    14.6339    14.6332     0.0007     1.5478     1.7159     1.0000     5.600
    103    -0.0002     0.9999     0.1640     10.207    152.000 259617.000     10.000    41.2634     0.0000   -37.9196   -14.0605    -1.8898     2.8852    20.6309    41.2644     0.6505    14.6339    14.6332     0.0007     1.5476     1.7105     1.0000     5.600
    104    -0.0010     0.9999     0.1660     10.260    166.000 259617.000     10.000    41.2634     0.0000   -37.7681   -14.0703    -1.8538     2.8844    20.6309    41.2644     0.6510    14.6339    14.6332     0.0007     1.5473     1.7112     1.0000     5.600
    105     0.0000     1.0000     0.1680     10.242    148.000 259617.000     10.000    41.2634     0.0000   -37.6168   -14.0812    -1.8983     2.8887    20.6309    41.2644     0.6515    14.6339    14.6332     0.0007     1.5471     1.7178     1.0000     5.600
    106     0.0000     0.9994     0.1698     10.245    169.000 259617.000     10.000    41.2634     0.0000   -37.4658   -14.0812    -1.8931     2.8967    20.6309    41.2644     0.6515    14.6339    14.6332     0.0007     1.5483     1.7169     1.0000     5.600
    107     0.0000     1.0002     0.1720     10.273    162.000 259617.000     10.000    41.2634     0.0000   -37.3151   -14.1018    -1.8933     2.8967    20.6309    41.2644     0.6524    14.6339    14.6332     0.0007     1.5471     1.7139     1.0000     5.600
    108    -0.0004     0.9995     0.1739     10.208    150.000 259617.000     10.000    41.2634     0.0000   -37.1646   -14.1018    -1.8737     2.8960    20.6309    41.2644     0.6524    14.6339    14.6332     0.0007     1.5485     1.7191     1.0000     5.600
    109    -0.0017     0.9999     0.1760     10.232    152.000 259617.000     10.000    41.2634     0.0000   -37.0144   -14.1166    -1.8164     2.8939    20.6309    41.2644     0.6531    14.6339    14.6332     0.0007     1.5467     1.7050     1.0000     5.600
    110    -0.0010     0.9999     0.1780     10.245    140.000 259617.000     10.000    41.2634     0.0000   -36.8644   -14.1274    -1.8455     2.8951    20.6309    41.2644     0.6536    14.6339    14.6332     0.0007     1.5475     1.7157     1.0000     5.600
    111    -0.0000     1.0000     0.1800     10.266    160.000 259617.000     10.000    41.2634     0.0000   -36.7148   -14.1383    -1.8974     2.8873    20.6309    41.2644     0.6541    14.6339    14.6332     0.0007     1.5476     1.7152     1.0000     5.600
    112    -0.0001     0.9993     0.1818     10.246    157.000 259617.000     10.000    41.2634     0.0000   -36.5653   -14.1383    -1.8925     2.8933    20.6309    41.2644     0.6541    14.6339    14.6332     0.0007     1.5476     1.7169     1.0000     5.600
    113     0.0002     1.0002     0.1841     10.242    159.000 259617.000     10.000    41.2634     0.0000   -36.4162   -14.1609    -1.9017     2.8950    20.6309    41.2644     0.6551    14.6339    14.6332     0.0007     1.5478     1.7155     1.0000     5.600
    114     0.0001     0.9995     0.1859     10.247    163.000 259617.000     10.000    41.2634     0.0000   -36.2673   -14.1609    -1.9007     2.8878    20.6309    41.2644     0.6551    14.6339    14.6332     0.0007     1.5479     1.7160     1.0000     5.600
    115    -0.0002     0.9999     0.1880     10.276    169.000 259617.000     10.000    41.2634     0.0000   -36.1187   -14.1766    -1.8876     2.8920    20.6309    41.2644     0.6559    14.6339    14.6332     0.0007     1.5476     1.7147     1.0000     5.600
    116    -0.0003     1.0000     0.1900     10.261    172.000 259617.000     10.000    41.2634     0.0000   -35.9704   -14.1885    -1.8829     2.8909    20.6309    41.2644     0.6564    14.6339    14.6332     0.0007     1.5472     1.7111     1.0000     5.600
    117     0.0001     1.0000     0.1920     10.268    135.000 259617.000     10.000    41.2634     0.0000   -35.8223   -14.2003    -1.8985     2.8920    20.6309    41.2644     0.6569    14.6339    14.6332     0.0007     1.5479     1.7179     1.0000     5.600
    118     0.0000     0.9993     0.1938     10.269    156.000 259617.000     10.000    41.2634     0.0000   -35.6745   -14.2003    -1.8952     2.8931    20.6309    41.2644     0.6569    14.6339    14.6332     0.0007     1.5475     1.7101     1.0000     5.600
    119    -0.0000     1.0002     0.1961     10.249    158.000 259617.000     10.000    41.2634     0.0000   -35.5270   -14.2239    -1.8948     2.8912    20.6309    41.2644     0.6580    14.6339    14.6332     0.0007     1.5485     1.7122     1.0000     5.600
    120    -0.0023     0.9995     0.1978     10.248    155.000 259617.000     10.000    41.2634     0.0000   -35.3798   -14.2239    -1.7915     2.8904    20.6309    41.2644     0.6580    14.6339    14.6332     0.0007     1.5472     1.7114     1.0000     5.600
    121    -0.0000     0.9999     0.2000     10.235    159.000 259617.000     10.000    41.2634     0.0000   -35.2329   -14.2406    -1.8961     2.8907    20.6309    41.2644     0.6588    14.6339    14.6332     0.0007     1.5474     1.7090     1.0000     5.600
    122    -0.0002     1.0000     0.2020     10.290    157.000 259617.000     10.000    41.2634     0.0000   -35.0862   -14.2534    -1.8870     2.8869    20.6309    41.2644     0.6594    14.6339    14.6332     0.0007     1.5477     1.7098     1.0000     5.600
    123    -0.0001     1.0000     0.2040     10.231    163.000 259617.000     10.000    41.2634     0.0000   -34.9398   -14.2642    -1.8921     2.8890    20.6309    41.2644     0.6599    14.6339    14.6332     0.0007     1.5485     1.7130     1.0000     5.600
    124     0.0001     1.0000     0.2060     10.204    166.000 259617.000     10.000    41.2634     0.0000   -34.7938   -14.2761    -1.9001     2.8954    20.6309    41.2644     0.6604    14.6339    14.6332     0.0007     1.5475     1.7129     1.0000     5.600
    125     0.0000     1.0000     0.2080     10.256    137.000 259617.000     10.000    41.2634     0.0000   -34.6480   -14.2869    -1.8991     2.8879    20.6309    41.2644     0.6609    14.6339    14.6332     0.0007     1.5474     1.7139     1.0000     5.600
    126    -0.0000     1.0000     0.2100     10.265    154.000 259617.000     10.000    41.2634     0.0000   -34.5025   -14.2987    -1.8941     2.8927    20.6309    41.2644     0.6615    14.6339    14.6332     0.0007     1.5479     1.7209     1.0000     5.600
    127    -0.0001     1.0000     0.2120     10.288    157.000 259617.000     10.000    41.2634     0.0000   -34.3572   -14.3095    -1.8882     2.8932    20.6309    41.2644     0.6620    14.6339    14.6332     0.0007     1.5480     1.7162     1.0000     5.600
    128     0.0001     1.0000     0.2140     10.259    147.000 259617.000     10.000    41.2634     0.0000   -34.2123   -14.3223    -1.8976     2.8959    20.6309    41.2644     0.6626    14.6339    14.6332     0.0007     1.5476     1.7148     1.0000     5.600
    129     0.0002     1.0000     0.2160     10.236    165.000 259617.000     10.000    41.2634     0.0000   -34.0677   -14.3331    -1.9030     2.8948    20.6309    41.2644     0.6631    14.6339    14.6332     0.0007     1.5480     1.7196     1.0000     5.600
    130    -0.0001     1.0000     0.2180     10.258    138.000 259617.000     10.000    41.2634     0.0000   -33.9234   -14.3450    -1.8940     2.8904    20.6309    41.2644     0.6636    14.6339    14.6332     0.0007     1.5481     1.7159     1.0000     5.600
    131    -0.0015     1.0000     0.2200     10.285    172.000 259617.000     10.000    41.2634     0.0000   -33.7793   -14.3568    -1.8310     2.8869    20.6309    41.2644     0.6641    14.6339    14.6332     0.0007     1.5478     1.7086     1.0000     5.600
    132     0.0000     1.0000     0.2220     10.261    177.000 259617.000     10.000    41.2634     0.0000   -33.6356   -14.3696    -1.8954     2.8948    20.6309    41.2644     0.6647    14.6339    14.6332     0.0007     1.5473     1.7153     1.0000     5.600
    133     0.0001     1.0000     0.2240     10.266    164.000 259617.000     10.000    41.2634     0.0000   -33.4921   -14.3804    -1.9019     2.8909    20.6309    41.2644     0.6652    14.6339    14.6332     0.0007     1.5481     1.7162     1.0000     5.600
    134    -0.0001     1.0000     0.2260     10.254    150.000 259617.000     10.000    41.2634     0.0000   -33.3490   -14.3932    -1.8981     2.8814    20.6309    41.2644     0.6658    14.6339    14.6332     0.0007     1.5482     1.7191     1.0000     5.600
    135    -0.0001     1.0000     0.2280     10.283    176.000 259617.000     10.000    41.2634     0.0000   -33.2062   -14.4060    -1.8920     2.8926    20.6309    41.2644     0.6664    14.6339    14.6332     0.0007     1.5476     1.7139     1.0000     5.600
    136    -0.0001     1.0000     0.2300     10.297    187.000 259617.000     10.000    41.2634     0.0000   -33.0636   -14.4178    -1.8905     2.8914    20.6309    41.2644     0.6670    14.6339    14.6332     0.0007     1.5479     1.7097     1.0000     5.600
    137     0.0002     1.0000     0.2320     10.266    156.000 259617.000     10.000    41.2634     0.0000   -32.9214   -14.4306    -1.8903     2.9200    20.6309    41.2644     0.6675    14.6339    14.6332     0.0007     1.5479     1.7148     1.0000     5.600
    138     0.0000     1.0000     0.2340     10.289    172.000 259617.000     10.000    41.2634     0.0000   -32.7795   -14.4434    -1.8981     2.8895    20.6309    41.2644     0.6681    14.6339    14.6332     0.0007     1.5484     1.7217     1.0000     5.600
    139    -0.0016     1.0000     0.2360     10.236    151.000 259617.000     10.000    41.2634     0.0000   -32.6378   -14.4552    -1.8280     2.8875    20.6309    41.2644     0.6687    14.6339    14.6332     0.0007     1.5481     1.7158     1.0000     5.600
    140    -0.0003     1.0000     0.2380     10.248    183.000 259617.000     10.000    41.2634     0.0000   -32.4965   -14.4690    -1.8846     2.8914    20.6309    41.2644     0.6693    14.6339    14.6332     0.0007     1.5480     1.7167     1.0000     5.600
    141    -0.0020     1.0000     0.2400     10.186    151.000 259617.000     10.000    41.2634     0.0000   -32.3555   -14.4808    -1.8135     2.8843    20.6309    41.2644     0.6699    14.6339    14.6332     0.0007     1.5476     1.7118     1.0000     5.600
    142    -0.0001     1.0000     0.2420     10.229    177.000 259617.000     10.000    41.2634     0.0000   -32.2148   -14.4946    -1.8885     2.8959    20.6309    41.2644     0.6705    14.6339    14.6332     0.0007     1.5480     1.7155     1.0000     5.600
    143    -0.0002     1.0000     0.2440     10.219    196.000 259617.000     10.000    41.2634     0.0000   -32.0744   -14.5074    -1.8904     2.8886    20.6309    41.2644     0.6711    14.6339    14.6332     0.0007     1.5475     1.7154     1.0000     5.600
    144    -0.0008     1.0000     0.2460     10.272    227.000 259617.000     10.000    41.2634     0.0000   -31.9344   -14.5201    -1.8628     2.8920    20.6309    41.2644     0.6717    14.6339    14.6332     0.0007     1.5475     1.7090     1.0000     5.600
    145    -0.0000     1.0001     0.2480     10.260    286.000 259617.000     10.000    41.2634     0.0000   -31.7946   -14.5349    -1.8940     2.8910    20.6309    41.2644     0.6723    14.6339    14.6332     0.0007     1.5477     1.7199     1.0000     5.600
    146     0.0000     1.0000     0.2500     10.293    252.000 259617.000     10.000    41.2634     0.0000   -31.6551   -14.5477    -1.8949     2.8937    20.6309    41.2644     0.6729    14.6339    14.6332     0.0007     1.5474     1.7095     1.0000     5.600
    147    -0.0010     0.9999     0.2520     10.216    253.000 259617.000     10.000    41.2634     0.0000   -31.5160   -14.5595    -1.8507     2.8939    20.6309    41.2644     0.6735    14.6339    14.6332     0.0007     1.5471     1.7062     1.0000     5.600
    148     0.0000     1.0001     0.2540     10.260    238.000 259617.000     10.000    41.2634     0.0000   -31.3772   -14.5753    -1.8944     2.8951    20.6309    41.2644     0.6742    14.6339    14.6332     0.0007     1.5475     1.7142     1.0000     5.600
    149    -0.0019     1.0000     0.2560     10.240    199.000 259617.000     10.000    41.2634     0.0000   -31.2387   -14.5881    -1.8135     2.8948    20.6309    41.2644     0.6748    14.6339    14.6332     0.0007     1.5479     1.7122     1.0000     5.600
    150    -0.0002     0.9999     0.2580     10.300    211.000 259617.000     10.000    41.2634     0.0000   -31.1005   -14.6009    -1.8860     2.8961    20.6309    41.2644     0.6754    14.6339    14.6332     0.0007     1.5480     1.7143     1.0000     5.600
    151     0.0001     1.0000     0.2600     10.309    193.000 259617.000     10.000    41.2634     0.0000   -30.9627   -14.6156    -1.8990     2.8909    20.6309    41.2644     0.6761    14.6339    14.6332     0.0007     1.5485     1.7153     1.0000     5.600
    152    -0.0001     1.0000     0.2620     10.305    188.000 259617.000     10.000    41.2634     0.0000   -30.8251   -14.6294    -1.8923     2.8928    20.6309    41.2644     0.6767    14.6339    14.6332     0.0007     1.5482     1.7143     1.0000     5.600
    153    -0.0001     1.0000     0.2640     10.303    171.000 259617.000     10.000    41.2634     0.0000   -30.6879   -14.6442    -1.8885     2.8955    20.6309    41.2644     0.6774    14.6339    14.6332     0.0007     1.5480     1.7159     1.0000     5.600
    154     0.0000     1.0000     0.2660     10.291    180.000 259617.000     10.000    41.2634     0.0000   -30.5510   -14.6570    -1.8955     2.8942    20.6309    41.2644     0.6780    14.6339    14.6332     0.0007     1.5483     1.7130     1.0000     5.600
    155     0.0000     1.0001     0.2680     10.268    174.000 259617.000     10.000    41.2634     0.0000   -30.4144   -14.6727    -1.8954     2.8954    20.6309    41.2644     0.6787    14.6339    14.6332     0.0007     1.5482     1.7129     1.0000     5.600
    156     0.0000     1.0000     0.2700     10.240    192.000 259617.000     10.000    41.2634     0.0000   -30.2782   -14.6855    -1.8993     2.8859    20.6309    41.2644     0.6793    14.6339    14.6332     0.0007     1.5503     1.7198     1.0000     5.600
    157     0.0000     1.0000     0.2720     10.249    176.000 259617.000     10.000    41.2634     0.0000   -30.1422   -14.7003    -1.8973     2.8892    20.6309    41.2644     0.6800    14.6339    14.6332     0.0007     1.5475     1.7117     1.0000     5.600
    158     0.0000     1.0001     0.2740     10.252    149.000 259617.000     10.000    41.2634     0.0000   -30.0066   -14.7160    -1.8952     2.8940    20.6309    41.2644     0.6807    14.6339    14.6332     0.0007     1.5480     1.7184     1.0000     5.600
    159    -0.0032     1.0000     0.2760     10.253    167.000 259617.000     10.000    41.2634     0.0000   -29.8714   -14.7298    -1.7623     2.8862    20.6309    41.2644     0.6813    14.6339    14.6332     0.0007     1.5490     1.7198     1.0000     5.600
    160    -0.0001     1.0000     0.2780     10.235    167.000 259617.000     10.000    41.2634     0.0000   -29.7364   -14.7436    -1.8914     2.8919    20.6309    41.2644     0.6819    14.6339    14.6332     0.0007     1.5482     1.7135     1.0000     5.600
    161    -0.0025     1.0000     0.2800     10.290    185.000 259617.000     10.000    41.2634     0.0000   -29.6018   -14.7593    -1.7916     2.8876    20.6309    41.2644     0.6827    14.6339    14.6332     0.0007     1.5475     1.7082     1.0000     5.600
    162    -0.0001     1.0000     0.2820     10.281    157.000 259617.000     10.000    41.2634     0.0000   -29.4675   -14.7741    -1.8922     2.8910    20.6309    41.2644     0.6833    14.6339    14.6332     0.0007     1.5493     1.7208     1.0000     5.600
    163    -0.0009     1.0000     0.2840     10.274    181.000 259617.000     10.000    41.2634     0.0000   -29.3335   -14.7889    -1.8578     2.8917    20.6309    41.2644     0.6840    14.6339    14.6332     0.0007     1.5483     1.7173     1.0000     5.600
    164    -0.0000     0.9999     0.2860     10.274    157.000 259617.000     10.000    41.2634     0.0000   -29.1999   -14.8026    -1.8963     2.8856    20.6309    41.2644     0.6847    14.6339    14.6332     0.0007     1.5479     1.7173     1.0000     5.600
    165    -0.0000     1.0000     0.2880     10.248    161.000 259617.000     10.000    41.2634     0.0000   -29.0666   -14.8194    -1.8949     2.8891    20.6309    41.2644     0.6854    14.6339    14.6332     0.0007     1.5486     1.7206     1.0000     5.600
    166     0.0002     0.9999     0.2900     10.242    139.000 259617.000     10.000    41.2634     0.0000   -28.9336   -14.8331    -1.9045     2.8849    20.6309    41.2644     0.6861    14.6339    14.6332     0.0007     1.5482     1.7168     1.0000     5.600
    167    -0.0019     1.0000     0.2920     10.265    189.000 259617.000     10.000    41.2634     0.0000   -28.8010   -14.8489    -1.8178     2.8867    20.6309    41.2644     0.6868    14.6339    14.6332     0.0007     1.5476     1.7087     1.0000     5.600
    168    -0.0001     1.0000     0.2940     10.276    190.000 259617.000     10.000    41.2634     0.0000   -28.6687   -14.8646    -1.8940     2.8886    20.6309    41.2644     0.6875    14.6339    14.6332     0.0007     1.5475     1.7098     1.0000     5.600
    169    -0.0009     1.0000     0.2960     10.266    161.000 259617.000     10.000    41.2634     0.0000   -28.5367   -14.8804    -1.8610     2.8860    20.6309    41.2644     0.6882    14.6339    14.6332     0.0007     1.5484     1.7170     1.0000     5.600
    170     0.0001     1.0000     0.2980     10.255    176.000 259617.000     10.000    41.2634     0.0000   -28.4051   -14.8961    -1.9020     2.8895    20.6309    41.2644     0.6890    14.6339    14.6332     0.0007     1.5490     1.7200     1.0000     5.600
    171    -0.0024     1.0000     0.3000     10.283    173.000 259617.000     10.000    41.2634     0.0000   -28.2738   -14.9109    -1.7992     2.8874    20.6309    41.2644     0.6896    14.6339    14.6332     0.0007     1.5492     1.7167     1.0000     5.600
    172     0.0000     1.0001     0.3020     10.236    182.000 259617.000     10.000    41.2634     0.0000   -28.1428   -14.9286    -1.8952     2.8934    20.6309    41.2644     0.6905    14.6339    14.6332     0.0007     1.5485     1.7145     1.0000     5.600
    173    -0.0001     0.9999     0.3040     10.242    186.000 259617.000     10.000    41.2634     0.0000   -28.0122   -14.9414    -1.8911     2.8947    20.6309    41.2644     0.6910    14.6339    14.6332     0.0007     1.5481     1.7215     1.0000     5.600
    174     0.0005     1.0001     0.3060     10.230    171.000 259617.000     10.000    41.2634     0.0000   -27.8819   -14.9601    -1.9131     2.8958    20.6309    41.2644     0.6919    14.6339    14.6332     0.0007     1.5485     1.7189     1.0000     5.600
    175    -0.0002     1.0000     0.3080     10.272    170.000 259617.000     10.000    41.2634     0.0000   -27.7519   -14.9749    -1.8866     2.8926    20.6309    41.2644     0.6926    14.6339    14.6332     0.0007     1.5482     1.7140     1.0000     5.600
    176     0.0000     1.0000     0.3100     10.311    178.000 259617.000     10.000    41.2634     0.0000   -27.6223   -14.9916    -1.8971     2.8913    20.6309    41.2644     0.6933    14.6339    14.6332     0.0007     1.5479     1.7149     1.0000     5.600
    177     0.0005     0.9999     0.3120     10.308    199.000 259617.000     10.000    41.2634     0.0000   -27.4930   -15.0054    -1.9146     2.8944    20.6309    41.2644     0.6940    14.6339    14.6332     0.0007     1.5482     1.7154     1.0000     5.600
    178    -0.0016     1.0000     0.3140     10.285    167.000 259617.000     10.000    41.2634     0.0000   -27.3641   -15.0241    -1.8288     2.8913    20.6309    41.2644     0.6948    14.6339    14.6332     0.0007     1.5482     1.7140     1.0000     5.600
    179     0.0002     1.0000     0.3160     10.274    159.000 259617.000     10.000    41.2634     0.0000   -27.2355   -15.0398    -1.8992     2.8989    20.6309    41.2644     0.6956    14.6339    14.6332     0.0007     1.5482     1.7169     1.0000     5.600
    180    -0.0006     1.0000     0.3180     10.263    168.000 259617.000     10.000    41.2634     0.0000   -27.1072   -15.0566    -1.8710     2.8926    20.6309    41.2644     0.6963    14.6339    14.6332     0.0007     1.5482     1.7091     1.0000     5.600
    181     0.0001     1.0000     0.3200     10.308    166.000 259617.000     10.000    41.2634     0.0000   -26.9793   -15.0723    -1.9016     2.8871    20.6309    41.2644     0.6971    14.6339    14.6332     0.0007     1.5483     1.7220     1.0000     5.600
    182    -0.0000     1.0000     0.3220     10.232    165.000 259617.000     10.000    41.2634     0.0000   -26.8517   -15.0890    -1.8942     2.8900    20.6309    41.2644     0.6978    14.6339    14.6332     0.0007     1.5484     1.7161     1.0000     5.600
    183     0.0002     1.0000     0.3240     10.235    169.000 259617.000     10.000    41.2634     0.0000   -26.7244   -15.1058    -1.9008     2.8940    20.6309    41.2644     0.6986    14.6339    14.6332     0.0007     1.5491     1.7195     1.0000     5.600
    184    -0.0000     1.0000     0.3260     10.262    175.000 259617.000     10.000    41.2634     0.0000   -26.5975   -15.1235    -1.8934     2.8948    20.6309    41.2644     0.6994    14.6339    14.6332     0.0007     1.5485     1.7194     1.0000     5.600
    185    -0.0000     1.0000     0.3280     10.329    164.000 259617.000     10.000    41.2634     0.0000   -26.4710   -15.1392    -1.8960     2.8846    20.6309    41.2644     0.7001    14.6339    14.6332     0.0007     1.5490     1.7167     1.0000     5.600
    186    -0.0040     1.0000     0.3300     10.283    173.000 259617.000     10.000    41.2634     0.0000   -26.3448   -15.1570    -1.7412     2.8808    20.6309    41.2644     0.7010    14.6339    14.6332     0.0007     1.5484     1.7157     1.0000     5.600
    187    -0.0001     1.0000     0.3320     10.238    188.000 259617.000     10.000    41.2634     0.0000   -26.2189   -15.1737    -1.8895     2.8963    20.6309    41.2644     0.7017    14.6339    14.6332     0.0007     1.5490     1.7204     1.0000     5.600
    188    -0.0000     1.0000     0.3340     10.219    176.000 259617.000     10.000    41.2634     0.0000   -26.0933   -15.1914    -1.8948     2.8888    20.6309    41.2644     0.7025    14.6339    14.6332     0.0007     1.5482     1.7139     1.0000     5.600
    189    -0.0009     1.0000     0.3360     10.273    177.000 259617.000     10.000    41.2634     0.0000   -25.9681   -15.2081    -1.8621     2.8854    20.6309    41.2644     0.7033    14.6339    14.6332     0.0007     1.5482     1.7152     1.0000     5.600
    190    -0.0001     1.0000     0.3380     10.298    170.000 259617.000     10.000    41.2634     0.0000   -25.8433   -15.2259    -1.8948     2.8778    20.6309    41.2644     0.7041    14.6339    14.6332     0.0007     1.5485     1.7154     1.0000     5.600
    191     0.0002     1.0000     0.3400     10.307    176.000 259617.000     10.000    41.2634     0.0000   -25.7188   -15.2426    -1.9023     2.8958    20.6309    41.2644     0.7049    14.6339    14.6332     0.0007     1.5494     1.7288     1.0000     5.600
    192    -0.0026     1.0000     0.3420     10.346    162.000 259617.000     10.000    41.2634     0.0000   -25.5946   -15.2603    -1.7967     2.8855    20.6309    41.2644     0.7057    14.6339    14.6332     0.0007     1.5481     1.7107     1.0000     5.600
    193     0.0001     1.0000     0.3440     10.258    175.000 259617.000     10.000    41.2634     0.0000   -25.4708   -15.2780    -1.9013     2.8903    20.6309    41.2644     0.7065    14.6339    14.6332     0.0007     1.5485     1.7139     1.0000     5.600
    194    -0.0001     1.0000     0.3460     10.254    193.000 259617.000     10.000    41.2634     0.0000   -25.3473   -15.2948    -1.8887     2.8941    20.6309    41.2644     0.7073    14.6339    14.6332     0.0007     1.5491     1.7223     1.0000     5.600
    195    -0.0010     1.0001     0.3480     10.266    173.000 259617.000     10.000    41.2634     0.0000   -25.2242   -15.3144    -1.8587     2.8869    20.6309    41.2644     0.7082    14.6339    14.6332     0.0007     1.5479     1.7125     1.0000     5.600
    196     0.0001     1.0000     0.3500     10.304    172.000 259617.000     10.000    41.2634     0.0000   -25.1014   -15.3302    -1.8988     2.8944    20.6309    41.2644     0.7089    14.6339    14.6332     0.0007     1.5489     1.7212     1.0000     5.600
# Sum of Counts = 218320
# Center of Mass = 0.023681+/-0.000169
# Full Width Half-Maximum = 0.143499+/-0.000542
# 12:08:56 PM  3/13/2016   scan completed.
