# scan = 226
# date = 3/12/2016
# time = 8:40:42 PM
# proposal = IPTS-15083.1
# experiment = Evolution of the magnetic structure with applied field in multiferroic (ND4)2[FeCl5(D2O)]
# experiment_number = 718
# command = scan h 0 k 1 l -0.04 0.35 0.002 preset mcu 10
# builtin_command = scan h 0 k 1 l -0.04 0.35 0.002 preset mcu 10
# users = Wei Tian, Jaime Fernandez-Baca, Huibo Cao
# local_contact = Wei Tian
# scan_title = scan (0 1 L), 1.5K, 1.8 T
# monochromator = PG002
# analyzer = Pg002
# sense = +-+
# collimation = 40-40-40-60
# samplename = (ND4)2[FeCl5(D2O)]
# sampletype = crystal
# samplemosaic = 30.000000
# latticeconstants = 13.659912,9.922999,6.896657,90.000000,90.000000,90.000000
# ubmatrix = -0.002420,0.072257,0.100960,-0.003695,0.069997,-0.104056,-0.073074,-0.005932,0.001919
# mode = 0
# plane_normal = 0.033051,0.050478,0.998178
# ubconf = UB11Mar2016_12747PM.ini
# preset_type = normal 
# preset_channel = mcu
# preset_value = 10.000000
# def_x = l
# def_y = detector
# col_headers = 
#   Pt.          h          k          l       time   detector    monitor        mcu         m2      mag_e         s1         s2        sgl        sgu         a1         a2          q         ei         ef          e    coldtip    tsample       temp persistent_field
      1    -0.0001     1.0002    -0.0400     10.230    154.000 259617.000     10.000    41.2634     0.0000   -54.3076   -13.7101    -1.9001     2.8859    20.6309    41.2634     0.6344    14.6339    14.6339    -0.0000     1.4416     1.4931     1.0000     1.800
      2    -0.0002     1.0005    -0.0380     10.284    164.000 259617.000     10.000    41.2634     0.0000   -54.1421   -13.7111    -1.9003     2.8755    20.6309    41.2634     0.6344    14.6339    14.6339    -0.0000     1.4415     1.4877     1.0000     1.800
      3     0.0001     1.0004    -0.0360     10.220    145.000 259617.000     10.000    41.2634     0.0000   -53.9767   -13.7081    -1.9045     2.8930    20.6309    41.2634     0.6343    14.6339    14.6339    -0.0000     1.4413     1.4871     1.0000     1.800
      4    -0.0002     1.0004    -0.0340     10.274    140.000 259617.000     10.000    41.2634     0.0000   -53.8112   -13.7062    -1.8951     2.8817    20.6309    41.2634     0.6342    14.6339    14.6339    -0.0000     1.4411     1.4854     1.0000     1.800
      5     0.0000     1.0004    -0.0320     10.268    181.000 259617.000     10.000    41.2634     0.0000   -53.6458   -13.7042    -1.8884     2.9023    20.6309    41.2634     0.6341    14.6339    14.6339    -0.0000     1.4407     1.4850     1.0000     1.800
      6    -0.0002     1.0005    -0.0300     10.244    154.000 259617.000     10.000    41.2634     0.0000   -53.4803   -13.7032    -1.8979     2.8784    20.6309    41.2634     0.6341    14.6339    14.6339    -0.0000     1.4409     1.4841     1.0000     1.800
      7     0.0010     1.0005    -0.0280     10.283    154.000 259617.000     10.000    41.2634     0.0000   -53.3149   -13.7022    -1.9426     2.9050    20.6309    41.2634     0.6340    14.6339    14.6339    -0.0000     1.4406     1.4838     1.0000     1.800
      8     0.0001     1.0005    -0.0260     10.259    147.000 259617.000     10.000    41.2634     0.0000   -53.1495   -13.7003    -1.8998     2.8952    20.6309    41.2634     0.6339    14.6339    14.6339    -0.0000     1.4404     1.4850     1.0000     1.800
      9    -0.0001     1.0004    -0.0240     10.277    157.000 259617.000     10.000    41.2634     0.0000   -52.9842   -13.6983    -1.8918     2.8911    20.6309    41.2634     0.6338    14.6339    14.6339    -0.0000     1.4405     1.4837     1.0000     1.800
     10    -0.0006     1.0005    -0.0220     10.259    172.000 259617.000     10.000    41.2634     0.0000   -52.8188   -13.6973    -1.8603     2.8950    20.6309    41.2634     0.6338    14.6339    14.6339    -0.0000     1.4404     1.4818     1.0000     1.800
     11    -0.0002     1.0003    -0.0200     10.256    193.000 259617.000     10.000    41.2634     0.0000   -52.6535   -13.6944    -1.8894     2.8862    20.6309    41.2634     0.6337    14.6339    14.6339    -0.0000     1.4404     1.4833     1.0000     1.800
     12     0.0006     1.0004    -0.0180     10.260    209.000 259617.000     10.000    41.2634     0.0000   -52.4882   -13.6944    -1.9372     2.8898    20.6309    41.2634     0.6337    14.6339    14.6339    -0.0000     1.4402     1.4822     1.0000     1.800
     13    -0.0001     1.0003    -0.0160     10.272    184.000 259617.000     10.000    41.2634     0.0000   -52.3229   -13.6914    -1.8955     2.8850    20.6309    41.2634     0.6335    14.6339    14.6339    -0.0000     1.4401     1.4838     1.0000     1.800
     14    -0.0002     1.0002    -0.0140     10.247    200.000 259617.000     10.000    41.2634     0.0000   -52.1577   -13.6894    -1.8972     2.8802    20.6309    41.2634     0.6334    14.6339    14.6339    -0.0000     1.4402     1.4824     1.0000     1.800
     15     0.0002     1.0001    -0.0120     10.259    241.000 259617.000     10.000    41.2634     0.0000   -51.9925   -13.6875    -1.9051     2.8935    20.6309    41.2634     0.6333    14.6339    14.6339    -0.0000     1.4402     1.4835     1.0000     1.800
     16     0.0000     1.0001    -0.0100     10.262    262.000 259617.000     10.000    41.2634     0.0000   -51.8274   -13.6875    -1.8935     2.8967    20.6309    41.2634     0.6333    14.6339    14.6339    -0.0000     1.4402     1.4838     1.0000     1.800
     17    -0.0002     1.0003    -0.0080     10.300    326.000 259617.000     10.000    41.2634     0.0000   -51.6623   -13.6894    -1.8859     2.8938    20.6309    41.2634     0.6334    14.6339    14.6339    -0.0000     1.4401     1.4834     1.0000     1.800
     18    -0.0001     1.0002    -0.0060     10.232    592.000 259617.000     10.000    41.2634     0.0000   -51.4972   -13.6875    -1.8930     2.8907    20.6309    41.2634     0.6333    14.6339    14.6339    -0.0000     1.4401     1.4841     1.0000     1.800
     19     0.0004     1.0004    -0.0040     10.225   1113.000 259617.000     10.000    41.2634     0.0000   -51.3322   -13.6894    -1.9219     2.8908    20.6309    41.2634     0.6334    14.6339    14.6339    -0.0000     1.4401     1.4820     1.0000     1.800
     20     0.0001     1.0001    -0.0020     10.219   1923.000 259617.000     10.000    41.2634     0.0000   -51.1672   -13.6855    -1.8992     2.8951    20.6309    41.2634     0.6333    14.6339    14.6339    -0.0000     1.4404     1.4829     1.0000     1.800
     21    -0.0001     1.0002     0.0000     10.285   2150.000 259617.000     10.000    41.2634     0.0000   -51.0023   -13.6865    -1.8923     2.8900    20.6309    41.2634     0.6333    14.6339    14.6339    -0.0000     1.4404     1.4848     1.0000     1.800
     22     0.0007     1.0002     0.0020     10.281   1756.000 259617.000     10.000    41.2634     0.0000   -50.8375   -13.6865    -1.9288     2.8981    20.6309    41.2634     0.6333    14.6339    14.6339    -0.0000     1.4403     1.4834     1.0000     1.800
     23     0.0002     1.0001     0.0040     10.265   1140.000 259617.000     10.000    41.2634     0.0000   -50.6727   -13.6865    -1.9009     2.8969    20.6309    41.2634     0.6333    14.6339    14.6339    -0.0000     1.4406     1.4823     1.0000     1.800
     24    -0.0000     1.0004     0.0060     10.298    725.000 259617.000     10.000    41.2634     0.0000   -50.5080   -13.6904    -1.8917     2.8946    20.6309    41.2634     0.6335    14.6339    14.6339    -0.0000     1.4405     1.4835     1.0000     1.800
     25     0.0008     1.0002     0.0080     10.308    484.000 259617.000     10.000    41.2634     0.0000   -50.3433   -13.6875    -1.9478     2.8858    20.6309    41.2634     0.6333    14.6339    14.6339    -0.0000     1.4404     1.4828     1.0000     1.800
     26    -0.0002     1.0001     0.0100     10.283    354.000 259617.000     10.000    41.2634     0.0000   -50.1787   -13.6875    -1.8964     2.8785    20.6309    41.2634     0.6333    14.6339    14.6339    -0.0000     1.4403     1.4821     1.0000     1.800
     27    -0.0001     1.0002     0.0120     10.280    261.000 259617.000     10.000    41.2634     0.0000   -50.0142   -13.6885    -1.8883     2.8930    20.6309    41.2634     0.6334    14.6339    14.6339    -0.0000     1.4402     1.4836     1.0000     1.800
     28     0.0007     1.0002     0.0140     10.261    189.000 259617.000     10.000    41.2634     0.0000   -49.8498   -13.6904    -1.9295     2.8998    20.6309    41.2634     0.6335    14.6339    14.6339    -0.0000     1.4403     1.4839     1.0000     1.800
     29     0.0002     1.0000     0.0160     10.288    196.000 259617.000     10.000    41.2634     0.0000   -49.6854   -13.6875    -1.8973     2.9026    20.6309    41.2634     0.6333    14.6339    14.6339    -0.0000     1.4402     1.4842     1.0000     1.800
     30    -0.0008     0.9999     0.0180     10.320    188.000 259617.000     10.000    41.2634     0.0000   -49.5211   -13.6875    -1.8470     2.8971    20.6309    41.2634     0.6333    14.6339    14.6339    -0.0000     1.4404     1.4824     1.0000     1.800
     31    -0.0015     0.9998     0.0200     10.273    172.000 259617.000     10.000    41.2634     0.0000   -49.3569   -13.6875    -1.8123     2.8943    20.6309    41.2634     0.6333    14.6339    14.6339    -0.0000     1.4404     1.4817     1.0000     1.800
     32     0.0001     0.9997     0.0220     10.261    163.000 259617.000     10.000    41.2634     0.0000   -49.1928   -13.6875    -1.8936     2.8993    20.6309    41.2634     0.6333    14.6339    14.6339    -0.0000     1.4403     1.4830     1.0000     1.800
     33    -0.0009     0.9996     0.0240     10.251    162.000 259617.000     10.000    41.2634     0.0000   -49.0287   -13.6875    -1.8406     2.8955    20.6309    41.2634     0.6333    14.6339    14.6339    -0.0000     1.4405     1.4826     1.0000     1.800
     34     0.0000     0.9995     0.0259     10.245    181.000 259617.000     10.000    41.2634     0.0000   -48.8648   -13.6875    -1.8992     2.8893    20.6309    41.2634     0.6333    14.6339    14.6339    -0.0000     1.4405     1.4816     1.0000     1.800
     35    -0.0003     0.9994     0.0279     10.233    152.000 259617.000     10.000    41.2634     0.0000   -48.7009   -13.6875    -1.8924     2.8765    20.6309    41.2634     0.6333    14.6339    14.6339    -0.0000     1.4407     1.4821     1.0000     1.800
     36    -0.0001     0.9993     0.0299     10.240    172.000 259617.000     10.000    41.2634     0.0000   -48.5371   -13.6875    -1.8940     2.8918    20.6309    41.2634     0.6333    14.6339    14.6339    -0.0000     1.4406     1.4826     1.0000     1.800
     37    -0.0008     1.0000     0.0320     10.271    143.000 259617.000     10.000    41.2634     0.0000   -48.3735   -13.6983    -1.8526     2.8927    20.6309    41.2634     0.6338    14.6339    14.6339    -0.0000     1.4408     1.4834     1.0000     1.800
     38    -0.0004     0.9998     0.0340     10.297    176.000 259617.000     10.000    41.2634     0.0000   -48.2099   -13.6983    -1.8956     2.8652    20.6309    41.2634     0.6338    14.6339    14.6339    -0.0000     1.4407     1.4839     1.0000     1.800
     39     0.0001     0.9997     0.0360     10.259    161.000 259617.000     10.000    41.2634     0.0000   -48.0464   -13.6983    -1.8919     2.9058    20.6309    41.2634     0.6338    14.6339    14.6339    -0.0000     1.4409     1.4844     1.0000     1.800
     40    -0.0014     0.9995     0.0379     10.242    144.000 259617.000     10.000    41.2634     0.0000   -47.8831   -13.6983    -1.8235     2.8853    20.6309    41.2634     0.6338    14.6339    14.6339    -0.0000     1.4411     1.4830     1.0000     1.800
     41    -0.0002     0.9994     0.0399     10.235    146.000 259617.000     10.000    41.2634     0.0000   -47.7198   -13.6983    -1.8973     2.8762    20.6309    41.2634     0.6338    14.6339    14.6339    -0.0000     1.4410     1.4851     1.0000     1.800
     42    -0.0000     1.0001     0.0420     10.253    147.000 259617.000     10.000    41.2634     0.0000   -47.5567   -13.7101    -1.8939     2.8933    20.6309    41.2634     0.6344    14.6339    14.6339    -0.0000     1.4411     1.4855     1.0000     1.800
     43     0.0010     0.9999     0.0440     10.267    146.000 259617.000     10.000    41.2634     0.0000   -47.3937   -13.7101    -1.9500     2.8924    20.6309    41.2634     0.6344    14.6339    14.6339    -0.0000     1.4412     1.4842     1.0000     1.800
     44    -0.0001     0.9997     0.0460     10.277    149.000 259617.000     10.000    41.2634     0.0000   -47.2308   -13.7101    -1.8952     2.8869    20.6309    41.2634     0.6344    14.6339    14.6339    -0.0000     1.4415     1.4841     1.0000     1.800
     45     0.0007     0.9995     0.0479     10.282    146.000 259617.000     10.000    41.2634     0.0000   -47.0680   -13.7101    -1.9297     2.8947    20.6309    41.2634     0.6344    14.6339    14.6339    -0.0000     1.4413     1.4835     1.0000     1.800
     46    -0.0001     0.9993     0.0499     10.274    171.000 259617.000     10.000    41.2634     0.0000   -46.9053   -13.7101    -1.8962     2.8884    20.6309    41.2634     0.6344    14.6339    14.6339    -0.0000     1.4413     1.4860     1.0000     1.800
     47     0.0000     0.9999     0.0520     10.257    151.000 259617.000     10.000    41.2634     0.0000   -46.7428   -13.7219    -1.8973     2.8934    20.6309    41.2634     0.6349    14.6339    14.6339    -0.0000     1.4414     1.4858     1.0000     1.800
     48    -0.0002     0.9997     0.0540     10.259    136.000 259617.000     10.000    41.2634     0.0000   -46.5803   -13.7219    -1.9007     2.8772    20.6309    41.2634     0.6349    14.6339    14.6339    -0.0000     1.4415     1.4863     1.0000     1.800
     49    -0.0002     0.9995     0.0559     10.239    155.000 259617.000     10.000    41.2634     0.0000   -46.4180   -13.7219    -1.8912     2.8868    20.6309    41.2634     0.6349    14.6339    14.6339    -0.0000     1.4420     1.4868     1.0000     1.800
     50    -0.0007     1.0000     0.0580     10.294    160.000 259617.000     10.000    41.2634     0.0000   -46.2559   -13.7318    -1.8706     2.8803    20.6309    41.2634     0.6354    14.6339    14.6339    -0.0000     1.4420     1.4853     1.0000     1.800
     51    -0.0003     0.9997     0.0600     10.283    156.000 259617.000     10.000    41.2634     0.0000   -46.0939   -13.7318    -1.8915     2.8755    20.6309    41.2634     0.6354    14.6339    14.6339    -0.0000     1.4421     1.4860     1.0000     1.800
     52     0.0001     0.9995     0.0619     10.242    176.000 259617.000     10.000    41.2634     0.0000   -45.9320   -13.7318    -1.8907     2.9045    20.6309    41.2634     0.6354    14.6339    14.6339    -0.0000     1.4420     1.4869     1.0000     1.800
     53    -0.0003     1.0000     0.0640     10.305    188.000 259617.000     10.000    41.2634     0.0000   -45.7702   -13.7426    -1.8867     2.8833    20.6309    41.2634     0.6359    14.6339    14.6339    -0.0000     1.4425     1.4865     1.0000     1.800
     54    -0.0002     0.9997     0.0660     10.281    161.000 259617.000     10.000    41.2634     0.0000   -45.6086   -13.7426    -1.8946     2.8810    20.6309    41.2634     0.6359    14.6339    14.6339    -0.0000     1.4427     1.4848     1.0000     1.800
     55    -0.0006     0.9995     0.0679     10.256    147.000 259617.000     10.000    41.2634     0.0000   -45.4472   -13.7426    -1.8698     2.8876    20.6309    41.2634     0.6359    14.6339    14.6339    -0.0000     1.4425     1.4851     1.0000     1.800
     56    -0.0001     1.0000     0.0700     10.259    180.000 259617.000     10.000    41.2634     0.0000   -45.2859   -13.7544    -1.8929     2.8929    20.6309    41.2634     0.6364    14.6339    14.6339    -0.0000     1.4426     1.4861     1.0000     1.800
     57     0.0001     0.9998     0.0720     10.282    163.000 259617.000     10.000    41.2634     0.0000   -45.1247   -13.7544    -1.9018     2.8928    20.6309    41.2634     0.6364    14.6339    14.6339    -0.0000     1.4426     1.4863     1.0000     1.800
     58    -0.0008     0.9995     0.0739     10.257    141.000 259617.000     10.000    41.2634     0.0000   -44.9637   -13.7544    -1.8581     2.8885    20.6309    41.2634     0.6364    14.6339    14.6339    -0.0000     1.4428     1.4855     1.0000     1.800
     59    -0.0002     1.0000     0.0760     10.237    155.000 259617.000     10.000    41.2634     0.0000   -44.8028   -13.7662    -1.8988     2.8777    20.6309    41.2634     0.6370    14.6339    14.6339    -0.0000     1.4427     1.4872     1.0000     1.800
     60    -0.0002     0.9997     0.0779     10.276    149.000 259617.000     10.000    41.2634     0.0000   -44.6421   -13.7662    -1.8979     2.8761    20.6309    41.2634     0.6370    14.6339    14.6339    -0.0000     1.4430     1.4869     1.0000     1.800
     61     0.0002     0.9994     0.0799     10.238    160.000 259617.000     10.000    41.2634     0.0000   -44.4816   -13.7662    -1.9058     2.8931    20.6309    41.2634     0.6370    14.6339    14.6339    -0.0000     1.4432     1.4861     1.0000     1.800
     62     0.0001     1.0000     0.0820     10.238    192.000 259617.000     10.000    41.2634     0.0000   -44.3212   -13.7800    -1.8904     2.9060    20.6309    41.2634     0.6376    14.6339    14.6339    -0.0000     1.4435     1.4870     1.0000     1.800
     63    -0.0003     0.9997     0.0839     10.242    139.000 259617.000     10.000    41.2634     0.0000   -44.1610   -13.7800    -1.8846     2.8874    20.6309    41.2634     0.6376    14.6339    14.6339    -0.0000     1.4440     1.4873     1.0000     1.800
     64    -0.0000     0.9994     0.0859     10.236    153.000 259617.000     10.000    41.2634     0.0000   -44.0010   -13.7800    -1.8911     2.8983    20.6309    41.2634     0.6376    14.6339    14.6339    -0.0000     1.4443     1.4883     1.0000     1.800
     65     0.0001     1.0000     0.0880     10.250    147.000 259617.000     10.000    41.2634     0.0000   -43.8411   -13.7938    -1.8944     2.9015    20.6309    41.2634     0.6382    14.6339    14.6339    -0.0000     1.4442     1.4909     1.0000     1.800
     66    -0.0010     0.9996     0.0899     10.229    163.000 259617.000     10.000    41.2634     0.0000   -43.6814   -13.7938    -1.8454     2.8899    20.6309    41.2634     0.6382    14.6339    14.6339    -0.0000     1.4445     1.4895     1.0000     1.800
     67     0.0002     0.9999     0.0920     10.264    163.000 259617.000     10.000    41.2634     0.0000   -43.5219   -13.8026    -1.9002     2.9039    20.6309    41.2634     0.6386    14.6339    14.6339    -0.0000     1.4450     1.4921     1.0000     1.800
     68    -0.0006     0.9995     0.0939     10.253    190.000 259617.000     10.000    41.2634     0.0000   -43.3625   -13.8026    -1.8581     2.9030    20.6309    41.2634     0.6386    14.6339    14.6339    -0.0000     1.4449     1.4925     1.0000     1.800
     69     0.0000     1.0000     0.0960     10.283    172.000 259617.000     10.000    41.2634     0.0000   -43.2033   -13.8154    -1.8972     2.8906    20.6309    41.2634     0.6392    14.6339    14.6339    -0.0000     1.4455     1.4927     1.0000     1.800
     70    -0.0000     0.9997     0.0979     10.291    174.000 259617.000     10.000    41.2634     0.0000   -43.0443   -13.8154    -1.8975     2.8873    20.6309    41.2634     0.6392    14.6339    14.6339    -0.0000     1.4459     1.4926     1.0000     1.800
     71    -0.0000     1.0000     0.1000     10.243    166.000 259617.000     10.000    41.2634     0.0000   -42.8855   -13.8263    -1.8913     2.8965    20.6309    41.2634     0.6397    14.6339    14.6339    -0.0000     1.4460     1.4920     1.0000     1.800
     72    -0.0004     0.9996     0.1019     10.247    150.000 259617.000     10.000    41.2634     0.0000   -42.7269   -13.8263    -1.8791     2.8900    20.6309    41.2634     0.6397    14.6339    14.6339    -0.0000     1.4455     1.4922     1.0000     1.800
     73     0.0002     0.9999     0.1040     10.238    167.000 259617.000     10.000    41.2634     0.0000   -42.5685   -13.8361    -1.9010     2.8972    20.6309    41.2634     0.6402    14.6339    14.6339    -0.0000     1.4462     1.4910     1.0000     1.800
     74     0.0002     0.9995     0.1059     10.280    171.000 259617.000     10.000    41.2634     0.0000   -42.4102   -13.8361    -1.9044     2.8933    20.6309    41.2634     0.6402    14.6339    14.6339    -0.0000     1.4458     1.4930     1.0000     1.800
     75    -0.0001     1.0000     0.1080     10.236    164.000 259617.000     10.000    41.2634     0.0000   -42.2522   -13.8499    -1.8929     2.8896    20.6309    41.2634     0.6408    14.6339    14.6339    -0.0000     1.4461     1.4937     1.0000     1.800
     76    -0.0018     0.9996     0.1099     10.247    159.000 259617.000     10.000    41.2634     0.0000   -42.0943   -13.8499    -1.8138     2.8783    20.6309    41.2634     0.6408    14.6339    14.6339    -0.0000     1.4463     1.4921     1.0000     1.800
     77    -0.0002     1.0000     0.1120     10.263    171.000 259617.000     10.000    41.2634     0.0000   -41.9367   -13.8617    -1.8968     2.8801    20.6309    41.2634     0.6414    14.6339    14.6339    -0.0000     1.4459     1.4922     1.0000     1.800
     78    -0.0002     0.9996     0.1139     10.240    150.000 259617.000     10.000    41.2634     0.0000   -41.7792   -13.8617    -1.8911     2.8871    20.6309    41.2634     0.6414    14.6339    14.6339    -0.0000     1.4458     1.4928     1.0000     1.800
     79    -0.0013     1.0000     0.1160     10.233    177.000 259617.000     10.000    41.2634     0.0000   -41.6220   -13.8745    -1.8390     2.8818    20.6309    41.2634     0.6420    14.6339    14.6339    -0.0000     1.4464     1.4921     1.0000     1.800
     80    -0.0001     0.9995     0.1179     10.236    175.000 259617.000     10.000    41.2634     0.0000   -41.4649   -13.8745    -1.8979     2.8832    20.6309    41.2634     0.6420    14.6339    14.6339    -0.0000     1.4457     1.4935     1.0000     1.800
     81    -0.0001     1.0000     0.1200     10.259    165.000 259617.000     10.000    41.2634     0.0000   -41.3081   -13.8883    -1.8927     2.8910    20.6309    41.2634     0.6426    14.6339    14.6339    -0.0000     1.4461     1.4927     1.0000     1.800
     82    -0.0019     0.9996     0.1219     10.222    175.000 259617.000     10.000    41.2634     0.0000   -41.1515   -13.8883    -1.8021     2.8950    20.6309    41.2634     0.6426    14.6339    14.6339    -0.0000     1.4458     1.4909     1.0000     1.800
     83    -0.0002     1.0000     0.1240     10.201    173.000 259617.000     10.000    41.2634     0.0000   -40.9950   -13.9011    -1.8954     2.8787    20.6309    41.2634     0.6432    14.6339    14.6339    -0.0000     1.4459     1.4912     1.0000     1.800
     84    -0.0017     0.9995     0.1259     10.241    164.000 259617.000     10.000    41.2634     0.0000   -40.8388   -13.9011    -1.8126     2.8887    20.6309    41.2634     0.6432    14.6339    14.6339    -0.0000     1.4458     1.4910     1.0000     1.800
     85    -0.0001     1.0001     0.1280     10.246    178.000 259617.000     10.000    41.2634     0.0000   -40.6828   -13.9168    -1.8924     2.8910    20.6309    41.2634     0.6439    14.6339    14.6339    -0.0000     1.4456     1.4910     1.0000     1.800
     86    -0.0001     0.9996     0.1299     10.273    178.000 259617.000     10.000    41.2634     0.0000   -40.5271   -13.9168    -1.8886     2.8924    20.6309    41.2634     0.6439    14.6339    14.6339    -0.0000     1.4456     1.4920     1.0000     1.800
     87    -0.0000     0.9999     0.1320     10.243    184.000 259617.000     10.000    41.2634     0.0000   -40.3715   -13.9286    -1.8956     2.8903    20.6309    41.2634     0.6444    14.6339    14.6339    -0.0000     1.4456     1.4917     1.0000     1.800
     88    -0.0002     0.9994     0.1339     10.221    169.000 259617.000     10.000    41.2634     0.0000   -40.2162   -13.9286    -1.8802     2.8976    20.6309    41.2634     0.6444    14.6339    14.6339    -0.0000     1.4450     1.4915     1.0000     1.800
     89    -0.0002     1.0000     0.1360     10.267    160.000 259617.000     10.000    41.2634     0.0000   -40.0611   -13.9453    -1.8956     2.8760    20.6309    41.2634     0.6452    14.6339    14.6339    -0.0000     1.4450     1.4921     1.0000     1.800
     90    -0.0001     0.9995     0.1379     10.290    173.000 259617.000     10.000    41.2634     0.0000   -39.9062   -13.9453    -1.8914     2.8885    20.6309    41.2634     0.6452    14.6339    14.6339    -0.0000     1.4453     1.4927     1.0000     1.800
     91    -0.0000     1.0000     0.1400     10.269    189.000 259617.000     10.000    41.2634     0.0000   -39.7515   -13.9601    -1.8938     2.8949    20.6309    41.2634     0.6459    14.6339    14.6339    -0.0000     1.4450     1.4939     1.0000     1.800
     92    -0.0005     0.9994     0.1419     10.283    204.000 259617.000     10.000    41.2634     0.0000   -39.5971   -13.9601    -1.8689     2.8982    20.6309    41.2634     0.6459    14.6339    14.6339    -0.0000     1.4449     1.4912     1.0000     1.800
     93     0.0000     1.0000     0.1440     10.254    181.000 259617.000     10.000    41.2634     0.0000   -39.4429   -13.9768    -1.8978     2.8923    20.6309    41.2634     0.6467    14.6339    14.6339    -0.0000     1.4448     1.4902     1.0000     1.800
     94    -0.0008     0.9995     0.1459     10.247    191.000 259617.000     10.000    41.2634     0.0000   -39.2890   -13.9768    -1.8562     2.8944    20.6309    41.2634     0.6467    14.6339    14.6339    -0.0000     1.4449     1.4910     1.0000     1.800
     95     0.0000     1.0000     0.1480     10.294    191.000 259617.000     10.000    41.2634     0.0000   -39.1352   -13.9926    -1.8994     2.8888    20.6309    41.2634     0.6474    14.6339    14.6339    -0.0000     1.4448     1.4913     1.0000     1.800
     96    -0.0006     0.9994     0.1499     10.316    186.000 259617.000     10.000    41.2634     0.0000   -38.9818   -13.9926    -1.8765     2.8788    20.6309    41.2634     0.6474    14.6339    14.6339    -0.0000     1.4450     1.4904     1.0000     1.800
     97    -0.0000     1.0000     0.1520     10.240    196.000 259617.000     10.000    41.2634     0.0000   -38.8285   -14.0093    -1.8989     2.8840    20.6309    41.2634     0.6482    14.6339    14.6339    -0.0000     1.4446     1.4919     1.0000     1.800
     98    -0.0001     0.9994     0.1539     10.246    196.000 259617.000     10.000    41.2634     0.0000   -38.6755   -14.0093    -1.8909     2.8919    20.6309    41.2634     0.6482    14.6339    14.6339    -0.0000     1.4445     1.4903     1.0000     1.800
     99    -0.0000     1.0000     0.1560     10.250    197.000 259617.000     10.000    41.2634     0.0000   -38.5228   -14.0261    -1.8938     2.8941    20.6309    41.2634     0.6489    14.6339    14.6339    -0.0000     1.4446     1.4890     1.0000     1.800
    100    -0.0001     0.9994     0.1578     10.226    181.000 259617.000     10.000    41.2634     0.0000   -38.3703   -14.0261    -1.8950     2.8888    20.6309    41.2634     0.6489    14.6339    14.6339    -0.0000     1.4444     1.4907     1.0000     1.800
    101    -0.0002     1.0001     0.1600     10.256    205.000 259617.000     10.000    41.2634     0.0000   -38.2180   -14.0448    -1.8916     2.8819    20.6309    41.2634     0.6498    14.6339    14.6339    -0.0000     1.4440     1.4910     1.0000     1.800
    102    -0.0007     0.9994     0.1619     10.263    208.000 259617.000     10.000    41.2634     0.0000   -38.0660   -14.0448    -1.8658     2.8871    20.6309    41.2634     0.6498    14.6339    14.6339    -0.0000     1.4442     1.4896     1.0000     1.800
    103    -0.0001     0.9999     0.1640     10.263    217.000 259617.000     10.000    41.2634     0.0000   -37.9142   -14.0605    -1.8948     2.8872    20.6309    41.2634     0.6505    14.6339    14.6339    -0.0000     1.4439     1.4888     1.0000     1.800
    104    -0.0001     1.0000     0.1660     10.231    210.000 259617.000     10.000    41.2634     0.0000   -37.7627   -14.0703    -1.8920     2.8928    20.6309    41.2634     0.6510    14.6339    14.6339    -0.0000     1.4437     1.4901     1.0000     1.800
    105    -0.0017     0.9993     0.1678     10.251    194.000 259617.000     10.000    41.2634     0.0000   -37.6115   -14.0703    -1.8125     2.8942    20.6309    41.2634     0.6510    14.6339    14.6339    -0.0000     1.4442     1.4898     1.0000     1.800
    106    -0.0002     1.0002     0.1701     10.266    212.000 259617.000     10.000    41.2634     0.0000   -37.4605   -14.0930    -1.8920     2.8817    20.6309    41.2634     0.6520    14.6339    14.6339    -0.0000     1.4433     1.4926     1.0000     1.800
    107     0.0000     0.9996     0.1719     10.258    238.000 259617.000     10.000    41.2634     0.0000   -37.3097   -14.0930    -1.8948     2.8963    20.6309    41.2634     0.6520    14.6339    14.6339    -0.0000     1.4439     1.4888     1.0000     1.800
    108     0.0000     0.9998     0.1739     10.238    211.000 259617.000     10.000    41.2634     0.0000   -37.1593   -14.1058    -1.8941     2.8949    20.6309    41.2634     0.6526    14.6339    14.6339    -0.0000     1.4441     1.4883     1.0000     1.800
    109    -0.0001     1.0000     0.1760     10.242    221.000 259617.000     10.000    41.2634     0.0000   -37.0090   -14.1186    -1.8906     2.8943    20.6309    41.2634     0.6532    14.6339    14.6339    -0.0000     1.4439     1.4881     1.0000     1.800
    110    -0.0001     0.9994     0.1778     10.252    221.000 259617.000     10.000    41.2634     0.0000   -36.8591   -14.1186    -1.8908     2.8888    20.6309    41.2634     0.6532    14.6339    14.6339    -0.0000     1.4436     1.4878     1.0000     1.800
    111    -0.0005     1.0001     0.1800     10.279    221.000 259617.000     10.000    41.2634     0.0000   -36.7094   -14.1392    -1.8737     2.8934    20.6309    41.2634     0.6541    14.6339    14.6339    -0.0000     1.4436     1.4883     1.0000     1.800
    112    -0.0000     0.9994     0.1818     10.265    213.000 259617.000     10.000    41.2634     0.0000   -36.5600   -14.1392    -1.8932     2.8956    20.6309    41.2634     0.6541    14.6339    14.6339    -0.0000     1.4437     1.4902     1.0000     1.800
    113    -0.0014     1.0001     0.1840     10.220    180.000 259617.000     10.000    41.2634     0.0000   -36.4108   -14.1589    -1.8337     2.8854    20.6309    41.2634     0.6550    14.6339    14.6339    -0.0000     1.4437     1.4895     1.0000     1.800
    114     0.0000     0.9994     0.1858     10.206    209.000 259617.000     10.000    41.2634     0.0000   -36.2620   -14.1589    -1.8927     2.9003    20.6309    41.2634     0.6550    14.6339    14.6339    -0.0000     1.4437     1.4871     1.0000     1.800
    115    -0.0017     1.0000     0.1880     10.228    215.000 259617.000     10.000    41.2634     0.0000   -36.1134   -14.1786    -1.8171     2.8964    20.6309    41.2634     0.6560    14.6339    14.6339    -0.0000     1.4435     1.4889     1.0000     1.800
    116     0.0001     0.9998     0.1900     10.246    199.000 259617.000     10.000    41.2634     0.0000   -35.9650   -14.1865    -1.9002     2.8884    20.6309    41.2634     0.6563    14.6339    14.6339    -0.0000     1.4433     1.4898     1.0000     1.800
    117    -0.0001     1.0001     0.1920     10.263    229.000 259617.000     10.000    41.2634     0.0000   -35.8170   -14.2003    -1.8966     2.8833    20.6309    41.2634     0.6570    14.6339    14.6339    -0.0000     1.4437     1.4907     1.0000     1.800
    118    -0.0000     0.9993     0.1938     10.268    197.000 259617.000     10.000    41.2634     0.0000   -35.6692   -14.2003    -1.9001     2.8817    20.6309    41.2634     0.6570    14.6339    14.6339    -0.0000     1.4439     1.4885     1.0000     1.800
    119    -0.0017     1.0002     0.1961     10.257    257.000 259617.000     10.000    41.2634     0.0000   -35.5217   -14.2239    -1.8230     2.8834    20.6309    41.2634     0.6580    14.6339    14.6339    -0.0000     1.4438     1.4889     1.0000     1.800
    120    -0.0001     0.9995     0.1978     10.297    234.000 259617.000     10.000    41.2634     0.0000   -35.3745   -14.2239    -1.8895     2.8911    20.6309    41.2634     0.6580    14.6339    14.6339    -0.0000     1.4436     1.4893     1.0000     1.800
    121    -0.0006     0.9999     0.2000     10.256    273.000 259617.000     10.000    41.2634     0.0000   -35.2276   -14.2406    -1.8712     2.8908    20.6309    41.2634     0.6588    14.6339    14.6339    -0.0000     1.4435     1.4882     1.0000     1.800
    122     0.0001     0.9999     0.2020     10.258    263.000 259617.000     10.000    41.2634     0.0000   -35.0809   -14.2524    -1.8994     2.8913    20.6309    41.2634     0.6594    14.6339    14.6339    -0.0000     1.4433     1.4901     1.0000     1.800
    123    -0.0025     1.0001     0.2040     10.341    284.000 259617.000     10.000    41.2634     0.0000   -34.9345   -14.2652    -1.7838     2.8903    20.6309    41.2634     0.6599    14.6339    14.6339    -0.0000     1.4436     1.4882     1.0000     1.800
    124    -0.0001     1.0000     0.2060     10.274    266.000 259617.000     10.000    41.2634     0.0000   -34.7885   -14.2751    -1.8938     2.8887    20.6309    41.2634     0.6604    14.6339    14.6339    -0.0000     1.4437     1.4888     1.0000     1.800
    125    -0.0001     1.0000     0.2080     10.318    294.000 259617.000     10.000    41.2634     0.0000   -34.6427   -14.2869    -1.8915     2.8928    20.6309    41.2634     0.6609    14.6339    14.6339    -0.0000     1.4438     1.4895     1.0000     1.800
    126    -0.0013     1.0000     0.2100     10.278    389.000 259617.000     10.000    41.2634     0.0000   -34.4972   -14.2977    -1.8419     2.8868    20.6309    41.2634     0.6614    14.6339    14.6339    -0.0000     1.4439     1.4887     1.0000     1.800
    127    -0.0001     1.0000     0.2120     10.260    418.000 259617.000     10.000    41.2634     0.0000   -34.3520   -14.3105    -1.8955     2.8863    20.6309    41.2634     0.6620    14.6339    14.6339    -0.0000     1.4436     1.4893     1.0000     1.800
    128    -0.0007     1.0000     0.2140     10.269    574.000 259617.000     10.000    41.2634     0.0000   -34.2070   -14.3213    -1.8653     2.8918    20.6309    41.2634     0.6625    14.6339    14.6339    -0.0000     1.4436     1.4888     1.0000     1.800
    129    -0.0001     1.0000     0.2160     10.275    814.000 259617.000     10.000    41.2634     0.0000   -34.0624   -14.3331    -1.8954     2.8826    20.6309    41.2634     0.6631    14.6339    14.6339    -0.0000     1.4438     1.4890     1.0000     1.800
    130    -0.0009     1.0000     0.2180     10.252   1026.000 259617.000     10.000    41.2634     0.0000   -33.9181   -14.3450    -1.8586     2.8887    20.6309    41.2634     0.6636    14.6339    14.6339    -0.0000     1.4435     1.4881     1.0000     1.800
    131    -0.0001     0.9999     0.2200     10.302   1430.000 259617.000     10.000    41.2634     0.0000   -33.7741   -14.3558    -1.8980     2.8787    20.6309    41.2634     0.6641    14.6339    14.6339    -0.0000     1.4438     1.4887     1.0000     1.800
    132    -0.0001     1.0000     0.2220     10.284   2563.000 259617.000     10.000    41.2634     0.0000   -33.6303   -14.3696    -1.8923     2.8856    20.6309    41.2634     0.6647    14.6339    14.6339    -0.0000     1.4436     1.4896     1.0000     1.800
    133    -0.0026     1.0000     0.2240     10.236   5389.000 259617.000     10.000    41.2634     0.0000   -33.4869   -14.3804    -1.7838     2.8819    20.6309    41.2634     0.6652    14.6339    14.6339    -0.0000     1.4437     1.4888     1.0000     1.800
    134    -0.0001     1.0001     0.2260     10.270  11388.000 259617.000     10.000    41.2634     0.0000   -33.3437   -14.3942    -1.8896     2.8917    20.6309    41.2634     0.6659    14.6339    14.6339    -0.0000     1.4436     1.4879     1.0000     1.800
    135     0.0001     1.0000     0.2280     10.242  21695.000 259617.000     10.000    41.2634     0.0000   -33.2009   -14.4050    -1.9026     2.8854    20.6309    41.2634     0.6664    14.6339    14.6339    -0.0000     1.4436     1.4878     1.0000     1.800
    136     0.0000     1.0000     0.2300     10.268  39647.000 259617.000     10.000    41.2634     0.0000   -33.0584   -14.4178    -1.8981     2.8905    20.6309    41.2634     0.6670    14.6339    14.6339    -0.0000     1.4437     1.4891     1.0000     1.800
    137    -0.0002     1.0000     0.2320     10.286  41776.000 259617.000     10.000    41.2634     0.0000   -32.9161   -14.4306    -1.8892     2.8863    20.6309    41.2634     0.6676    14.6339    14.6339    -0.0000     1.4436     1.4898     1.0000     1.800
    138     0.0000     1.0000     0.2340     10.256  29664.000 259617.000     10.000    41.2634     0.0000   -32.7742   -14.4424    -1.8986     2.8875    20.6309    41.2634     0.6681    14.6339    14.6339    -0.0000     1.4438     1.4871     1.0000     1.800
    139    -0.0001     1.0000     0.2360     10.307  17230.000 259617.000     10.000    41.2634     0.0000   -32.6326   -14.4562    -1.8912     2.8935    20.6309    41.2634     0.6687    14.6339    14.6339    -0.0000     1.4439     1.4886     1.0000     1.800
    140     0.0009     1.0000     0.2380     10.309  10261.000 259617.000     10.000    41.2634     0.0000   -32.4913   -14.4680    -1.9405     2.8828    20.6309    41.2634     0.6693    14.6339    14.6339    -0.0000     1.4435     1.4880     1.0000     1.800
    141    -0.0001     1.0000     0.2400     10.284   6442.000 259617.000     10.000    41.2634     0.0000   -32.3503   -14.4808    -1.8936     2.8847    20.6309    41.2634     0.6699    14.6339    14.6339    -0.0000     1.4434     1.4873     1.0000     1.800
    142     0.0019     1.0001     0.2420     10.259   3744.000 259617.000     10.000    41.2634     0.0000   -32.2096   -14.4955    -1.9772     2.8940    20.6309    41.2634     0.6705    14.6339    14.6339    -0.0000     1.4440     1.4883     1.0000     1.800
    143     0.0002     0.9999     0.2440     10.230   1663.000 259617.000     10.000    41.2634     0.0000   -32.0692   -14.5064    -1.8987     2.9015    20.6309    41.2634     0.6710    14.6339    14.6339    -0.0000     1.4435     1.4893     1.0000     1.800
    144    -0.0023     1.0000     0.2460     10.308   1032.000 259617.000     10.000    41.2634     0.0000   -31.9291   -14.5211    -1.8017     2.8843    20.6309    41.2634     0.6717    14.6339    14.6339    -0.0000     1.4438     1.4876     1.0000     1.800
    145    -0.0002     1.0000     0.2480     10.249    790.000 259617.000     10.000    41.2634     0.0000   -31.7894   -14.5329    -1.8950     2.8744    20.6309    41.2634     0.6723    14.6339    14.6339    -0.0000     1.4437     1.4879     1.0000     1.800
    146    -0.0001     1.0000     0.2500     10.211    653.000 259617.000     10.000    41.2634     0.0000   -31.6499   -14.5477    -1.8930     2.8899    20.6309    41.2634     0.6729    14.6339    14.6339    -0.0000     1.4436     1.4907     1.0000     1.800
    147     0.0000     1.0000     0.2520     10.226    544.000 259617.000     10.000    41.2634     0.0000   -31.5108   -14.5605    -1.8941     2.8962    20.6309    41.2634     0.6735    14.6339    14.6339    -0.0000     1.4433     1.4887     1.0000     1.800
    148    -0.0001     1.0000     0.2540     10.285    423.000 259617.000     10.000    41.2634     0.0000   -31.3720   -14.5743    -1.8900     2.8921    20.6309    41.2634     0.6742    14.6339    14.6339    -0.0000     1.4435     1.4898     1.0000     1.800
    149    -0.0001     1.0000     0.2560     10.249    356.000 259617.000     10.000    41.2634     0.0000   -31.2335   -14.5871    -1.8961     2.8802    20.6309    41.2634     0.6748    14.6339    14.6339    -0.0000     1.4436     1.4890     1.0000     1.800
    150    -0.0001     1.0000     0.2580     10.286    338.000 259617.000     10.000    41.2634     0.0000   -31.0953   -14.6018    -1.8925     2.8846    20.6309    41.2634     0.6754    14.6339    14.6339    -0.0000     1.4434     1.4900     1.0000     1.800
    151    -0.0002     1.0000     0.2600     10.263    328.000 259617.000     10.000    41.2634     0.0000   -30.9575   -14.6156    -1.8878     2.8893    20.6309    41.2634     0.6761    14.6339    14.6339    -0.0000     1.4433     1.4889     1.0000     1.800
    152    -0.0000     1.0000     0.2620     10.304    307.000 259617.000     10.000    41.2634     0.0000   -30.8199   -14.6294    -1.8956     2.8864    20.6309    41.2634     0.6767    14.6339    14.6339    -0.0000     1.4438     1.4888     1.0000     1.800
    153    -0.0026     1.0000     0.2640     10.249    300.000 259617.000     10.000    41.2634     0.0000   -30.6827   -14.6432    -1.7866     2.8870    20.6309    41.2634     0.6773    14.6339    14.6339    -0.0000     1.4436     1.4887     1.0000     1.800
    154     0.0000     1.0000     0.2660     10.267    226.000 259617.000     10.000    41.2634     0.0000   -30.5458   -14.6570    -1.8951     2.8934    20.6309    41.2634     0.6780    14.6339    14.6339    -0.0000     1.4440     1.4897     1.0000     1.800
    155    -0.0002     1.0001     0.2680     10.286    231.000 259617.000     10.000    41.2634     0.0000   -30.4093   -14.6727    -1.8924     2.8778    20.6309    41.2634     0.6787    14.6339    14.6339    -0.0000     1.4433     1.4868     1.0000     1.800
    156    -0.0000     1.0000     0.2700     10.275    234.000 259617.000     10.000    41.2634     0.0000   -30.2730   -14.6855    -1.8935     2.8914    20.6309    41.2634     0.6793    14.6339    14.6339    -0.0000     1.4432     1.4881     1.0000     1.800
    157    -0.0001     1.0000     0.2720     10.245    236.000 259617.000     10.000    41.2634     0.0000   -30.1371   -14.7003    -1.8935     2.8838    20.6309    41.2634     0.6800    14.6339    14.6339    -0.0000     1.4435     1.4879     1.0000     1.800
    158     0.0003     1.0001     0.2740     10.236    231.000 259617.000     10.000    41.2634     0.0000   -30.0015   -14.7160    -1.9016     2.9043    20.6309    41.2634     0.6807    14.6339    14.6339    -0.0000     1.4437     1.4894     1.0000     1.800
    159    -0.0021     0.9999     0.2760     10.249    245.000 259617.000     10.000    41.2634     0.0000   -29.8662   -14.7278    -1.8068     2.8961    20.6309    41.2634     0.6812    14.6339    14.6339    -0.0000     1.4435     1.4883     1.0000     1.800
    160     0.0000     1.0001     0.2780     10.287    244.000 259617.000     10.000    41.2634     0.0000   -29.7313   -14.7455    -1.8957     2.8945    20.6309    41.2634     0.6820    14.6339    14.6339    -0.0000     1.4434     1.4886     1.0000     1.800
    161    -0.0001     0.9999     0.2800     10.282    223.000 259617.000     10.000    41.2634     0.0000   -29.5967   -14.7574    -1.8941     2.8861    20.6309    41.2634     0.6826    14.6339    14.6339    -0.0000     1.4431     1.4895     1.0000     1.800
    162    -0.0000     1.0001     0.2820     10.276    201.000 259617.000     10.000    41.2634     0.0000   -29.4624   -14.7751    -1.8916     2.8968    20.6309    41.2634     0.6834    14.6339    14.6339    -0.0000     1.4431     1.4891     1.0000     1.800
    163    -0.0000     1.0000     0.2840     10.296    217.000 259617.000     10.000    41.2634     0.0000   -29.3284   -14.7879    -1.8964     2.8869    20.6309    41.2634     0.6840    14.6339    14.6339    -0.0000     1.4434     1.4902     1.0000     1.800
    164    -0.0001     1.0000     0.2860     10.277    206.000 259617.000     10.000    41.2634     0.0000   -29.1948   -14.8036    -1.8937     2.8831    20.6309    41.2634     0.6847    14.6339    14.6339    -0.0000     1.4432     1.4901     1.0000     1.800
    165    -0.0001     1.0000     0.2880     10.242    220.000 259617.000     10.000    41.2634     0.0000   -29.0615   -14.8184    -1.8912     2.8946    20.6309    41.2634     0.6854    14.6339    14.6339    -0.0000     1.4433     1.4897     1.0000     1.800
    166    -0.0010     1.0000     0.2900     10.287    207.000 259617.000     10.000    41.2634     0.0000   -28.9285   -14.8341    -1.8528     2.8935    20.6309    41.2634     0.6861    14.6339    14.6339    -0.0000     1.4435     1.4898     1.0000     1.800
    167    -0.0001     0.9999     0.2920     10.293    222.000 259617.000     10.000    41.2634     0.0000   -28.7959   -14.8479    -1.8967     2.8787    20.6309    41.2634     0.6867    14.6339    14.6339    -0.0000     1.4433     1.4888     1.0000     1.800
    168    -0.0001     1.0001     0.2940     10.257    215.000 259617.000     10.000    41.2634     0.0000   -28.6636   -14.8656    -1.8950     2.8793    20.6309    41.2634     0.6876    14.6339    14.6339    -0.0000     1.4427     1.4904     1.0000     1.800
    169    -0.0001     1.0000     0.2960     10.268    238.000 259617.000     10.000    41.2634     0.0000   -28.5316   -14.8794    -1.8935     2.8830    20.6309    41.2634     0.6882    14.6339    14.6339    -0.0000     1.4430     1.4905     1.0000     1.800
    170    -0.0017     1.0001     0.2980     10.293    240.000 259617.000     10.000    41.2634     0.0000   -28.4000   -14.8971    -1.8274     2.8881    20.6309    41.2634     0.6890    14.6339    14.6339    -0.0000     1.4426     1.4890     1.0000     1.800
    171    -0.0016     0.9999     0.3000     10.289    220.000 259617.000     10.000    41.2634     0.0000   -28.2687   -14.9099    -1.8319     2.8904    20.6309    41.2634     0.6896    14.6339    14.6339    -0.0000     1.4431     1.4886     1.0000     1.800
    172    -0.0000     1.0002     0.3021     10.228    214.000 259617.000     10.000    41.2634     0.0000   -28.1377   -14.9296    -1.8941     2.8933    20.6309    41.2634     0.6905    14.6339    14.6339    -0.0000     1.4427     1.4884     1.0000     1.800
    173    -0.0001     0.9999     0.3039     10.246    229.000 259617.000     10.000    41.2634     0.0000   -28.0071   -14.9404    -1.8951     2.8846    20.6309    41.2634     0.6910    14.6339    14.6339    -0.0000     1.4430     1.4889     1.0000     1.800
    174    -0.0000     1.0001     0.3060     10.251    210.000 259617.000     10.000    41.2634     0.0000   -27.8768   -14.9601    -1.8940     2.8909    20.6309    41.2634     0.6919    14.6339    14.6339    -0.0000     1.4432     1.4887     1.0000     1.800
    175    -0.0004     0.9999     0.3079     10.247    226.000 259617.000     10.000    41.2634     0.0000   -27.7469   -14.9729    -1.8796     2.8853    20.6309    41.2634     0.6925    14.6339    14.6339    -0.0000     1.4430     1.4881     1.0000     1.800
    176    -0.0002     1.0001     0.3100     10.279    220.000 259617.000     10.000    41.2634     0.0000   -27.6172   -14.9926    -1.8967     2.8677    20.6309    41.2634     0.6934    14.6339    14.6339    -0.0000     1.4429     1.4891     1.0000     1.800
    177    -0.0000     0.9999     0.3120     10.296    210.000 259617.000     10.000    41.2634     0.0000   -27.4880   -15.0054    -1.8933     2.8942    20.6309    41.2634     0.6940    14.6339    14.6339    -0.0000     1.4429     1.4911     1.0000     1.800
    178    -0.0000     1.0000     0.3140     10.254    207.000 259617.000     10.000    41.2634     0.0000   -27.3590   -15.0241    -1.8955     2.8888    20.6309    41.2634     0.6949    14.6339    14.6339    -0.0000     1.4427     1.4902     1.0000     1.800
    179    -0.0029     1.0000     0.3160     10.241    184.000 259617.000     10.000    41.2634     0.0000   -27.2304   -15.0398    -1.7837     2.8803    20.6309    41.2634     0.6956    14.6339    14.6339    -0.0000     1.4429     1.4879     1.0000     1.800
    180    -0.0000     1.0000     0.3180     10.239    172.000 259617.000     10.000    41.2634     0.0000   -27.1022   -15.0566    -1.8900     2.9012    20.6309    41.2634     0.6963    14.6339    14.6339    -0.0000     1.4428     1.4883     1.0000     1.800
    181    -0.0002     0.9999     0.3199     10.254    224.000 259617.000     10.000    41.2634     0.0000   -26.9742   -15.0703    -1.8896     2.8849    20.6309    41.2634     0.6970    14.6339    14.6339    -0.0000     1.4430     1.4896     1.0000     1.800
    182    -0.0001     1.0000     0.3220     10.260    200.000 259617.000     10.000    41.2634     0.0000   -26.8467   -15.0900    -1.8943     2.8842    20.6309    41.2634     0.6979    14.6339    14.6339    -0.0000     1.4428     1.4889     1.0000     1.800
    183    -0.0002     0.9999     0.3240     10.268    180.000 259617.000     10.000    41.2634     0.0000   -26.7194   -15.1048    -1.8899     2.8893    20.6309    41.2634     0.6986    14.6339    14.6339    -0.0000     1.4427     1.4903     1.0000     1.800
    184     0.0011     1.0001     0.3260     10.271    223.000 259617.000     10.000    41.2634     0.0000   -26.5925   -15.1245    -1.9395     2.8946    20.6309    41.2634     0.6995    14.6339    14.6339    -0.0000     1.4429     1.4900     1.0000     1.800
    185    -0.0002     0.9999     0.3280     10.284    196.000 259617.000     10.000    41.2634     0.0000   -26.4660   -15.1383    -1.8937     2.8728    20.6309    41.2634     0.7001    14.6339    14.6339    -0.0000     1.4428     1.4905     1.0000     1.800
    186    -0.0004     1.0001     0.3301     10.191    200.000 259617.000     10.000    41.2634     0.0000   -26.3398   -15.1589    -1.8765     2.8980    20.6309    41.2634     0.7011    14.6339    14.6339    -0.0000     1.4427     1.4918     1.0000     1.800
    187    -0.0001     0.9998     0.3319     10.238    215.000 259617.000     10.000    41.2634     0.0000   -26.2139   -15.1707    -1.8923     2.8930    20.6309    41.2634     0.7016    14.6339    14.6339    -0.0000     1.4429     1.4912     1.0000     1.800
    188    -0.0013     1.0002     0.3341     10.226    206.000 259617.000     10.000    41.2634     0.0000   -26.0884   -15.1944    -1.8433     2.8901    20.6309    41.2634     0.7027    14.6339    14.6339    -0.0000     1.4427     1.4895     1.0000     1.800
    189     0.0000     0.9998     0.3359     10.276    235.000 259617.000     10.000    41.2634     0.0000   -25.9632   -15.2052    -1.8950     2.8922    20.6309    41.2634     0.7032    14.6339    14.6339    -0.0000     1.4428     1.4893     1.0000     1.800
    190     0.0005     1.0000     0.3380     10.258    214.000 259617.000     10.000    41.2634     0.0000   -25.8383   -15.2259    -1.9153     2.8945    20.6309    41.2634     0.7041    14.6339    14.6339    -0.0000     1.4426     1.4908     1.0000     1.800
    191    -0.0015     1.0000     0.3400     10.262    206.000 259617.000     10.000    41.2634     0.0000   -25.7138   -15.2426    -1.8384     2.8842    20.6309    41.2634     0.7049    14.6339    14.6339    -0.0000     1.4424     1.4901     1.0000     1.800
    192     0.0000     1.0000     0.3420     10.280    188.000 259617.000     10.000    41.2634     0.0000   -25.5897   -15.2603    -1.8975     2.8852    20.6309    41.2634     0.7057    14.6339    14.6339    -0.0000     1.4423     1.4894     1.0000     1.800
    193    -0.0002     1.0001     0.3440     10.252    210.000 259617.000     10.000    41.2634     0.0000   -25.4658   -15.2790    -1.8886     2.8889    20.6309    41.2634     0.7066    14.6339    14.6339    -0.0000     1.4424     1.4926     1.0000     1.800
    194    -0.0018     0.9999     0.3460     10.264    215.000 259617.000     10.000    41.2634     0.0000   -25.3424   -15.2938    -1.8266     2.8842    20.6309    41.2634     0.7073    14.6339    14.6339    -0.0000     1.4425     1.4912     1.0000     1.800
    195    -0.0001     1.0001     0.3480     10.240    182.000 259617.000     10.000    41.2634     0.0000   -25.2193   -15.3144    -1.8910     2.8892    20.6309    41.2634     0.7082    14.6339    14.6339    -0.0000     1.4426     1.4918     1.0000     1.800
    196    -0.0011     0.9999     0.3500     10.290    166.000 259617.000     10.000    41.2634     0.0000   -25.0965   -15.3292    -1.8535     2.8937    20.6309    41.2634     0.7089    14.6339    14.6339    -0.0000     1.4426     1.4901     1.0000     1.800
# Sum of Counts = 241980
# Center of Mass = 0.213188+/-0.000627
# Full Width Half-Maximum = 0.130824+/-0.000429
# 9:34:31 PM  3/12/2016   scan completed.
