# scan = 227
# date = 3/12/2016
# time = 9:37:32 PM
# proposal = IPTS-15083.1
# experiment = Evolution of the magnetic structure with applied field in multiferroic (ND4)2[FeCl5(D2O)]
# experiment_number = 718
# command = scan h 0 k 1 l -0.04 0.35 0.002 preset mcu 10
# builtin_command = scan h 0 k 1 l -0.04 0.35 0.002 preset mcu 10
# users = Wei Tian, Jaime Fernandez-Baca, Huibo Cao
# local_contact = Wei Tian
# scan_title = scan (0 1 L), 1.5K, 2 T
# monochromator = PG002
# analyzer = Pg002
# sense = +-+
# collimation = 40-40-40-60
# samplename = (ND4)2[FeCl5(D2O)]
# sampletype = crystal
# samplemosaic = 30.000000
# latticeconstants = 13.659912,9.922999,6.896657,90.000000,90.000000,90.000000
# ubmatrix = -0.002420,0.072257,0.100960,-0.003695,0.069997,-0.104056,-0.073074,-0.005932,0.001919
# mode = 0
# plane_normal = 0.033051,0.050478,0.998178
# ubconf = UB11Mar2016_12747PM.ini
# preset_type = normal 
# preset_channel = mcu
# preset_value = 10.000000
# def_x = l
# def_y = detector
# col_headers = 
#   Pt.          h          k          l       time   detector    monitor        mcu         m2      mag_e         s1         s2        sgl        sgu         a1         a2          q         ei         ef          e    coldtip    tsample       temp persistent_field
      1    -0.0001     1.0003    -0.0400     10.229    149.000 259617.000     10.000    41.2634     0.0000   -54.3076   -13.7111    -1.8958     2.8887    20.6309    41.2634     0.6344    14.6339    14.6339    -0.0000     1.4467     1.5023     1.0000     2.000
      2     0.0002     1.0005    -0.0380     10.277    162.000 259617.000     10.000    41.2634     0.0000   -54.1421   -13.7111    -1.9071     2.8931    20.6309    41.2634     0.6344    14.6339    14.6339    -0.0000     1.4467     1.4989     1.0000     2.000
      3    -0.0000     1.0004    -0.0360     10.241    168.000 259617.000     10.000    41.2634     0.0000   -53.9767   -13.7081    -1.8946     2.8937    20.6309    41.2634     0.6343    14.6339    14.6339    -0.0000     1.4465     1.4987     1.0000     2.000
      4     0.0001     1.0004    -0.0340     10.234    169.000 259617.000     10.000    41.2634     0.0000   -53.8112   -13.7062    -1.8985     2.8980    20.6309    41.2634     0.6342    14.6339    14.6339    -0.0000     1.4458     1.4978     1.0000     2.000
      5    -0.0008     1.0005    -0.0320     10.262    155.000 259617.000     10.000    41.2634     0.0000   -53.6458   -13.7062    -1.8481     2.8917    20.6309    41.2634     0.6342    14.6339    14.6339    -0.0000     1.4454     1.4968     1.0000     2.000
      6    -0.0001     1.0004    -0.0300     10.259    179.000 259617.000     10.000    41.2634     0.0000   -53.4803   -13.7022    -1.8891     2.8940    20.6309    41.2634     0.6340    14.6339    14.6339    -0.0000     1.4448     1.4971     1.0000     2.000
      7     0.0005     1.0006    -0.0280     10.244    149.000 259617.000     10.000    41.2634     0.0000   -53.3149   -13.7032    -1.9278     2.8909    20.6309    41.2634     0.6341    14.6339    14.6339    -0.0000     1.4448     1.4957     1.0000     2.000
      8    -0.0002     1.0003    -0.0260     10.250    163.000 259617.000     10.000    41.2634     0.0000   -53.1495   -13.6983    -1.8974     2.8785    20.6309    41.2634     0.6338    14.6339    14.6339    -0.0000     1.4445     1.4976     1.0000     2.000
      9    -0.0002     1.0002    -0.0240     10.301    155.000 259617.000     10.000    41.2634     0.0000   -52.9842   -13.6953    -1.8941     2.8828    20.6309    41.2634     0.6337    14.6339    14.6339    -0.0000     1.4445     1.4976     1.0000     2.000
     10     0.0000     1.0002    -0.0220     10.268    178.000 259617.000     10.000    41.2634     0.0000   -52.8188   -13.6934    -1.8924     2.8994    20.6309    41.2634     0.6336    14.6339    14.6339    -0.0000     1.4448     1.4968     1.0000     2.000
     11     0.0001     1.0003    -0.0200     10.239    194.000 259617.000     10.000    41.2634     0.0000   -52.6535   -13.6944    -1.8979     2.8954    20.6309    41.2634     0.6337    14.6339    14.6339    -0.0000     1.4447     1.4960     1.0000     2.000
     12     0.0007     1.0003    -0.0180     10.313    173.000 259617.000     10.000    41.2634     0.0000   -52.4882   -13.6924    -1.9469     2.8853    20.6309    41.2634     0.6336    14.6339    14.6339    -0.0000     1.4445     1.4927     1.0000     2.000
     13    -0.0002     1.0003    -0.0160     10.312    179.000 259617.000     10.000    41.2634     0.0000   -52.3229   -13.6914    -1.8944     2.8849    20.6309    41.2634     0.6335    14.6339    14.6339    -0.0000     1.4442     1.4941     1.0000     2.000
     14     0.0004     1.0003    -0.0140     10.262    202.000 259617.000     10.000    41.2634     0.0000   -52.1577   -13.6914    -1.9298     2.8855    20.6309    41.2634     0.6335    14.6339    14.6339    -0.0000     1.4439     1.4945     1.0000     2.000
     15    -0.0001     1.0002    -0.0120     10.208    234.000 259617.000     10.000    41.2634     0.0000   -51.9925   -13.6894    -1.8950     2.8867    20.6309    41.2634     0.6334    14.6339    14.6339    -0.0000     1.4438     1.4939     1.0000     2.000
     16    -0.0006     1.0002    -0.0100     10.224    279.000 259617.000     10.000    41.2634     0.0000   -51.8274   -13.6885    -1.8664     2.8894    20.6309    41.2634     0.6334    14.6339    14.6339    -0.0000     1.4439     1.4935     1.0000     2.000
     17     0.0000     1.0002    -0.0080     10.240    368.000 259617.000     10.000    41.2634     0.0000   -51.6623   -13.6885    -1.8930     2.8968    20.6309    41.2634     0.6334    14.6339    14.6339    -0.0000     1.4437     1.4956     1.0000     2.000
     18    -0.0000     1.0001    -0.0060     10.258    644.000 259617.000     10.000    41.2634     0.0000   -51.4972   -13.6865    -1.8924     2.8943    20.6309    41.2634     0.6333    14.6339    14.6339    -0.0000     1.4440     1.4943     1.0000     2.000
     19     0.0007     1.0005    -0.0040     10.262   1170.000 259617.000     10.000    41.2634     0.0000   -51.3322   -13.6914    -1.9251     2.9023    20.6309    41.2634     0.6335    14.6339    14.6339    -0.0000     1.4440     1.4930     1.0000     2.000
     20    -0.0002     1.0004    -0.0020     10.274   1913.000 259617.000     10.000    41.2634     0.0000   -51.1672   -13.6894    -1.8970     2.8824    20.6309    41.2634     0.6334    14.6339    14.6339    -0.0000     1.4440     1.4932     1.0000     2.000
     21    -0.0002     1.0002     0.0000     10.258   2157.000 259617.000     10.000    41.2634     0.0000   -51.0023   -13.6865    -1.8921     2.8867    20.6309    41.2634     0.6333    14.6339    14.6339    -0.0000     1.4440     1.4936     1.0000     2.000
     22     0.0005     1.0004     0.0020     10.279   1795.000 259617.000     10.000    41.2634     0.0000   -50.8375   -13.6894    -1.9295     2.8879    20.6309    41.2634     0.6334    14.6339    14.6339    -0.0000     1.4440     1.4929     1.0000     2.000
     23     0.0001     1.0002     0.0040     10.284   1206.000 259617.000     10.000    41.2634     0.0000   -50.6727   -13.6875    -1.8991     2.8951    20.6309    41.2634     0.6333    14.6339    14.6339    -0.0000     1.4442     1.4915     1.0000     2.000
     24    -0.0003     1.0003     0.0060     10.241    729.000 259617.000     10.000    41.2634     0.0000   -50.5080   -13.6894    -1.8799     2.8918    20.6309    41.2634     0.6334    14.6339    14.6339    -0.0000     1.4441     1.4932     1.0000     2.000
     25    -0.0001     1.0002     0.0080     10.259    467.000 259617.000     10.000    41.2634     0.0000   -50.3433   -13.6875    -1.8951     2.8866    20.6309    41.2634     0.6333    14.6339    14.6339    -0.0000     1.4439     1.4929     1.0000     2.000
     26    -0.0007     1.0005     0.0100     10.262    337.000 259617.000     10.000    41.2634     0.0000   -50.1787   -13.6924    -1.8551     2.8940    20.6309    41.2634     0.6336    14.6339    14.6339    -0.0000     1.4440     1.4928     1.0000     2.000
     27    -0.0001     1.0001     0.0120     10.237    232.000 259617.000     10.000    41.2634     0.0000   -50.0142   -13.6875    -1.8937     2.8873    20.6309    41.2634     0.6333    14.6339    14.6339    -0.0000     1.4441     1.4942     1.0000     2.000
     28     0.0005     1.0005     0.0140     10.256    217.000 259617.000     10.000    41.2634     0.0000   -49.8498   -13.6934    -1.9225     2.8958    20.6309    41.2634     0.6336    14.6339    14.6339    -0.0000     1.4441     1.4936     1.0000     2.000
     29     0.0001     1.0002     0.0160     10.307    200.000 259617.000     10.000    41.2634     0.0000   -49.6854   -13.6904    -1.9008     2.8917    20.6309    41.2634     0.6335    14.6339    14.6339    -0.0000     1.4437     1.4937     1.0000     2.000
     30    -0.0001     1.0002     0.0180     10.274    188.000 259617.000     10.000    41.2634     0.0000   -49.5211   -13.6914    -1.8967     2.8865    20.6309    41.2634     0.6335    14.6339    14.6339    -0.0000     1.4442     1.4964     1.0000     2.000
     31    -0.0000     1.0001     0.0200     10.214    185.000 259617.000     10.000    41.2634     0.0000   -49.3569   -13.6914    -1.8973     2.8897    20.6309    41.2634     0.6335    14.6339    14.6339    -0.0000     1.4443     1.4921     1.0000     2.000
     32    -0.0008     1.0004     0.0220     10.229    164.000 259617.000     10.000    41.2634     0.0000   -49.1928   -13.6963    -1.8496     2.8971    20.6309    41.2634     0.6338    14.6339    14.6339    -0.0000     1.4443     1.4923     1.0000     2.000
     33    -0.0001     1.0000     0.0240     10.257    169.000 259617.000     10.000    41.2634     0.0000   -49.0287   -13.6924    -1.8897     2.8943    20.6309    41.2634     0.6336    14.6339    14.6339    -0.0000     1.4443     1.4926     1.0000     2.000
     34    -0.0000     0.9999     0.0260     10.262    168.000 259617.000     10.000    41.2634     0.0000   -48.8648   -13.6924    -1.8939     2.8934    20.6309    41.2634     0.6336    14.6339    14.6339    -0.0000     1.4441     1.4929     1.0000     2.000
     35    -0.0014     0.9998     0.0280     10.219    169.000 259617.000     10.000    41.2634     0.0000   -48.7009   -13.6924    -1.8175     2.8944    20.6309    41.2634     0.6336    14.6339    14.6339    -0.0000     1.4440     1.4919     1.0000     2.000
     36    -0.0003     0.9997     0.0300     10.219    149.000 259617.000     10.000    41.2634     0.0000   -48.5371   -13.6924    -1.8903     2.8825    20.6309    41.2634     0.6336    14.6339    14.6339    -0.0000     1.4441     1.4923     1.0000     2.000
     37    -0.0002     0.9995     0.0319     10.250    157.000 259617.000     10.000    41.2634     0.0000   -48.3735   -13.6924    -1.8922     2.8854    20.6309    41.2634     0.6336    14.6339    14.6339    -0.0000     1.4446     1.4943     1.0000     2.000
     38     0.0001     0.9994     0.0339     10.253    158.000 259617.000     10.000    41.2634     0.0000   -48.2099   -13.6924    -1.8935     2.9012    20.6309    41.2634     0.6336    14.6339    14.6339    -0.0000     1.4438     1.4933     1.0000     2.000
     39     0.0001     0.9999     0.0360     10.268    144.000 259617.000     10.000    41.2634     0.0000   -48.0464   -13.7013    -1.8961     2.9011    20.6309    41.2634     0.6340    14.6339    14.6339    -0.0000     1.4442     1.4936     1.0000     2.000
     40    -0.0009     0.9997     0.0380     10.266    147.000 259617.000     10.000    41.2634     0.0000   -47.8831   -13.7013    -1.8454     2.8927    20.6309    41.2634     0.6340    14.6339    14.6339    -0.0000     1.4444     1.4929     1.0000     2.000
     41    -0.0015     0.9996     0.0399     10.272    153.000 259617.000     10.000    41.2634     0.0000   -47.7198   -13.7013    -1.8127     2.8926    20.6309    41.2634     0.6340    14.6339    14.6339    -0.0000     1.4445     1.4921     1.0000     2.000
     42    -0.0008     0.9994     0.0419     10.296    152.000 259617.000     10.000    41.2634     0.0000   -47.5567   -13.7013    -1.8637     2.8810    20.6309    41.2634     0.6340    14.6339    14.6339    -0.0000     1.4444     1.4915     1.0000     2.000
     43     0.0000     1.0000     0.0440     10.265    150.000 259617.000     10.000    41.2634     0.0000   -47.3937   -13.7121    -1.8971     2.8936    20.6309    41.2634     0.6345    14.6339    14.6339    -0.0000     1.4440     1.4935     1.0000     2.000
     44    -0.0001     0.9998     0.0460     10.309    166.000 259617.000     10.000    41.2634     0.0000   -47.2308   -13.7121    -1.8919     2.8921    20.6309    41.2634     0.6345    14.6339    14.6339    -0.0000     1.4443     1.4930     1.0000     2.000
     45    -0.0000     0.9996     0.0480     10.276    164.000 259617.000     10.000    41.2634     0.0000   -47.0680   -13.7121    -1.8977     2.8892    20.6309    41.2634     0.6345    14.6339    14.6339    -0.0000     1.4442     1.4928     1.0000     2.000
     46    -0.0001     0.9994     0.0499     10.237    153.000 259617.000     10.000    41.2634     0.0000   -46.9053   -13.7121    -1.8897     2.8919    20.6309    41.2634     0.6345    14.6339    14.6339    -0.0000     1.4440     1.4948     1.0000     2.000
     47     0.0003     0.9999     0.0520     10.291    149.000 259617.000     10.000    41.2634     0.0000   -46.7428   -13.7219    -1.9059     2.8974    20.6309    41.2634     0.6349    14.6339    14.6339    -0.0000     1.4442     1.4928     1.0000     2.000
     48     0.0001     0.9997     0.0540     10.269    139.000 259617.000     10.000    41.2634     0.0000   -46.5803   -13.7219    -1.8999     2.8936    20.6309    41.2634     0.6349    14.6339    14.6339    -0.0000     1.4437     1.4946     1.0000     2.000
     49    -0.0000     0.9995     0.0559     10.309    150.000 259617.000     10.000    41.2634     0.0000   -46.4180   -13.7219    -1.8911     2.8984    20.6309    41.2634     0.6349    14.6339    14.6339    -0.0000     1.4435     1.4932     1.0000     2.000
     50    -0.0018     1.0000     0.0580     10.258    163.000 259617.000     10.000    41.2634     0.0000   -46.2559   -13.7318    -1.8055     2.8839    20.6309    41.2634     0.6354    14.6339    14.6339    -0.0000     1.4442     1.4919     1.0000     2.000
     51    -0.0000     0.9997     0.0600     10.209    131.000 259617.000     10.000    41.2634     0.0000   -46.0939   -13.7318    -1.8976     2.8883    20.6309    41.2634     0.6354    14.6339    14.6339    -0.0000     1.4440     1.4945     1.0000     2.000
     52    -0.0001     0.9995     0.0619     10.217    148.000 259617.000     10.000    41.2634     0.0000   -45.9320   -13.7318    -1.8888     2.8933    20.6309    41.2634     0.6354    14.6339    14.6339    -0.0000     1.4441     1.4941     1.0000     2.000
     53    -0.0009     1.0001     0.0640     10.219    153.000 259617.000     10.000    41.2634     0.0000   -45.7702   -13.7436    -1.8523     2.8849    20.6309    41.2634     0.6359    14.6339    14.6339    -0.0000     1.4442     1.4933     1.0000     2.000
     54    -0.0000     0.9998     0.0660     10.207    158.000 259617.000     10.000    41.2634     0.0000   -45.6086   -13.7436    -1.8945     2.8927    20.6309    41.2634     0.6359    14.6339    14.6339    -0.0000     1.4439     1.4913     1.0000     2.000
     55    -0.0002     0.9995     0.0679     10.293    167.000 259617.000     10.000    41.2634     0.0000   -45.4472   -13.7436    -1.8909     2.8851    20.6309    41.2634     0.6359    14.6339    14.6339    -0.0000     1.4435     1.4915     1.0000     2.000
     56     0.0001     1.0000     0.0700     10.273    158.000 259617.000     10.000    41.2634     0.0000   -45.2859   -13.7544    -1.9110     2.8789    20.6309    41.2634     0.6364    14.6339    14.6339    -0.0000     1.4437     1.4906     1.0000     2.000
     57    -0.0000     0.9998     0.0720     10.296    155.000 259617.000     10.000    41.2634     0.0000   -45.1247   -13.7544    -1.8940     2.8935    20.6309    41.2634     0.6364    14.6339    14.6339    -0.0000     1.4435     1.4918     1.0000     2.000
     58     0.0001     0.9995     0.0739     10.302    151.000 259617.000     10.000    41.2634     0.0000   -44.9637   -13.7544    -1.8978     2.8957    20.6309    41.2634     0.6364    14.6339    14.6339    -0.0000     1.4435     1.4904     1.0000     2.000
     59    -0.0001     1.0000     0.0760     10.260    180.000 259617.000     10.000    41.2634     0.0000   -44.8028   -13.7662    -1.8978     2.8863    20.6309    41.2634     0.6370    14.6339    14.6339    -0.0000     1.4438     1.4902     1.0000     2.000
     60     0.0005     0.9997     0.0779     10.279    156.000 259617.000     10.000    41.2634     0.0000   -44.6421   -13.7662    -1.9251     2.8904    20.6309    41.2634     0.6370    14.6339    14.6339    -0.0000     1.4438     1.4898     1.0000     2.000
     61     0.0004     0.9994     0.0799     10.238    154.000 259617.000     10.000    41.2634     0.0000   -44.4816   -13.7662    -1.9099     2.9002    20.6309    41.2634     0.6370    14.6339    14.6339    -0.0000     1.4433     1.4906     1.0000     2.000
     62    -0.0001     1.0000     0.0820     10.231    181.000 259617.000     10.000    41.2634     0.0000   -44.3212   -13.7790    -1.8937     2.8870    20.6309    41.2634     0.6376    14.6339    14.6339    -0.0000     1.4432     1.4900     1.0000     2.000
     63    -0.0003     0.9996     0.0839     10.247    138.000 259617.000     10.000    41.2634     0.0000   -44.1610   -13.7790    -1.8950     2.8748    20.6309    41.2634     0.6376    14.6339    14.6339    -0.0000     1.4432     1.4909     1.0000     2.000
     64    -0.0000     1.0000     0.0860     10.238    176.000 259617.000     10.000    41.2634     0.0000   -44.0010   -13.7889    -1.8979     2.8897    20.6309    41.2634     0.6380    14.6339    14.6339    -0.0000     1.4432     1.4921     1.0000     2.000
     65    -0.0011     0.9996     0.0879     10.267    182.000 259617.000     10.000    41.2634     0.0000   -43.8411   -13.7889    -1.8408     2.8885    20.6309    41.2634     0.6380    14.6339    14.6339    -0.0000     1.4437     1.4918     1.0000     2.000
     66    -0.0003     1.0000     0.0900     10.232    179.000 259617.000     10.000    41.2634     0.0000   -43.6814   -13.7987    -1.8868     2.8838    20.6309    41.2634     0.6385    14.6339    14.6339    -0.0000     1.4437     1.4935     1.0000     2.000
     67    -0.0011     0.9996     0.0919     10.254    141.000 259617.000     10.000    41.2634     0.0000   -43.5219   -13.7987    -1.8491     2.8766    20.6309    41.2634     0.6385    14.6339    14.6339    -0.0000     1.4437     1.4920     1.0000     2.000
     68     0.0002     1.0000     0.0940     10.250    161.000 259617.000     10.000    41.2634     0.0000   -43.3625   -13.8095    -1.8996     2.8980    20.6309    41.2634     0.6390    14.6339    14.6339    -0.0000     1.4440     1.4944     1.0000     2.000
     69    -0.0003     0.9996     0.0959     10.238    161.000 259617.000     10.000    41.2634     0.0000   -43.2033   -13.8095    -1.8949     2.8730    20.6309    41.2634     0.6390    14.6339    14.6339    -0.0000     1.4442     1.4927     1.0000     2.000
     70     0.0001     1.0000     0.0980     10.269    144.000 259617.000     10.000    41.2634     0.0000   -43.0443   -13.8203    -1.8991     2.8927    20.6309    41.2634     0.6395    14.6339    14.6339    -0.0000     1.4440     1.4942     1.0000     2.000
     71    -0.0012     0.9996     0.0999     10.308    182.000 259617.000     10.000    41.2634     0.0000   -42.8855   -13.8203    -1.8312     2.8982    20.6309    41.2634     0.6395    14.6339    14.6339    -0.0000     1.4439     1.4921     1.0000     2.000
     72     0.0000     1.0000     0.1020     10.256    170.000 259617.000     10.000    41.2634     0.0000   -42.7269   -13.8312    -1.8944     2.8976    20.6309    41.2634     0.6400    14.6339    14.6339    -0.0000     1.4440     1.4928     1.0000     2.000
     73    -0.0010     0.9996     0.1039     10.209    156.000 259617.000     10.000    41.2634     0.0000   -42.5685   -13.8312    -1.8494     2.8855    20.6309    41.2634     0.6400    14.6339    14.6339    -0.0000     1.4439     1.4916     1.0000     2.000
     74     0.0000     1.0001     0.1060     10.196    146.000 259617.000     10.000    41.2634     0.0000   -42.4102   -13.8440    -1.8968     2.8932    20.6309    41.2634     0.6405    14.6339    14.6339    -0.0000     1.4437     1.4926     1.0000     2.000
     75    -0.0027     0.9996     0.1079     10.288    151.000 259617.000     10.000    41.2634     0.0000   -42.2522   -13.8440    -1.7639     2.8876    20.6309    41.2634     0.6405    14.6339    14.6339    -0.0000     1.4442     1.4910     1.0000     2.000
     76    -0.0002     1.0000     0.1100     10.288    145.000 259617.000     10.000    41.2634     0.0000   -42.0943   -13.8548    -1.8898     2.8844    20.6309    41.2634     0.6410    14.6339    14.6339    -0.0000     1.4436     1.4922     1.0000     2.000
     77    -0.0000     0.9995     0.1119     10.204    142.000 259617.000     10.000    41.2634     0.0000   -41.9367   -13.8548    -1.8967     2.8896    20.6309    41.2634     0.6410    14.6339    14.6339    -0.0000     1.4435     1.4914     1.0000     2.000
     78    -0.0000     1.0000     0.1140     10.254    177.000 259617.000     10.000    41.2634     0.0000   -41.7792   -13.8686    -1.8915     2.8963    20.6309    41.2634     0.6417    14.6339    14.6339    -0.0000     1.4437     1.4908     1.0000     2.000
     79     0.0000     0.9996     0.1159     10.263    182.000 259617.000     10.000    41.2634     0.0000   -41.6220   -13.8686    -1.9015     2.8854    20.6309    41.2634     0.6417    14.6339    14.6339    -0.0000     1.4436     1.4919     1.0000     2.000
     80    -0.0000     1.0000     0.1180     10.336    184.000 259617.000     10.000    41.2634     0.0000   -41.4649   -13.8804    -1.8989     2.8864    20.6309    41.2634     0.6422    14.6339    14.6339    -0.0000     1.4437     1.4898     1.0000     2.000
     81    -0.0001     0.9995     0.1199     10.277    161.000 259617.000     10.000    41.2634     0.0000   -41.3081   -13.8804    -1.8956     2.8831    20.6309    41.2634     0.6422    14.6339    14.6339    -0.0000     1.4440     1.4898     1.0000     2.000
     82    -0.0002     1.0000     0.1220     10.248    177.000 259617.000     10.000    41.2634     0.0000   -41.1515   -13.8951    -1.8905     2.8823    20.6309    41.2634     0.6429    14.6339    14.6339    -0.0000     1.4433     1.4907     1.0000     2.000
     83    -0.0002     0.9996     0.1239     10.295    158.000 259617.000     10.000    41.2634     0.0000   -40.9950   -13.8951    -1.8948     2.8780    20.6309    41.2634     0.6429    14.6339    14.6339    -0.0000     1.4432     1.4896     1.0000     2.000
     84    -0.0002     1.0000     0.1260     10.302    162.000 259617.000     10.000    41.2634     0.0000   -40.8388   -13.9089    -1.8943     2.8822    20.6309    41.2634     0.6435    14.6339    14.6339    -0.0000     1.4431     1.4900     1.0000     2.000
     85    -0.0002     0.9995     0.1279     10.301    163.000 259617.000     10.000    41.2634     0.0000   -40.6828   -13.9089    -1.8901     2.8857    20.6309    41.2634     0.6435    14.6339    14.6339    -0.0000     1.4427     1.4887     1.0000     2.000
     86    -0.0000     0.9999     0.1300     10.256    160.000 259617.000     10.000    41.2634     0.0000   -40.5271   -13.9217    -1.9010     2.8819    20.6309    41.2634     0.6441    14.6339    14.6339    -0.0000     1.4429     1.4902     1.0000     2.000
     87    -0.0002     0.9994     0.1319     10.272    178.000 259617.000     10.000    41.2634     0.0000   -40.3715   -13.9217    -1.8930     2.8803    20.6309    41.2634     0.6441    14.6339    14.6339    -0.0000     1.4432     1.4906     1.0000     2.000
     88    -0.0013     1.0000     0.1340     10.234    157.000 259617.000     10.000    41.2634     0.0000   -40.2162   -13.9375    -1.8341     2.8864    20.6309    41.2634     0.6449    14.6339    14.6339    -0.0000     1.4433     1.4905     1.0000     2.000
     89    -0.0002     0.9995     0.1359     10.207    166.000 259617.000     10.000    41.2634     0.0000   -40.0611   -13.9375    -1.8937     2.8769    20.6309    41.2634     0.6449    14.6339    14.6339    -0.0000     1.4426     1.4904     1.0000     2.000
     90    -0.0001     1.0000     0.1380     10.244    156.000 259617.000     10.000    41.2634     0.0000   -39.9062   -13.9532    -1.8939     2.8888    20.6309    41.2634     0.6456    14.6339    14.6339    -0.0000     1.4430     1.4911     1.0000     2.000
     91     0.0001     0.9995     0.1399     10.266    178.000 259617.000     10.000    41.2634     0.0000   -39.7515   -13.9532    -1.8950     2.8973    20.6309    41.2634     0.6456    14.6339    14.6339    -0.0000     1.4425     1.4919     1.0000     2.000
     92    -0.0010     1.0000     0.1420     10.247    156.000 259617.000     10.000    41.2634     0.0000   -39.5971   -13.9680    -1.8504     2.8856    20.6309    41.2634     0.6463    14.6339    14.6339    -0.0000     1.4431     1.4895     1.0000     2.000
     93    -0.0002     0.9994     0.1439     10.257    171.000 259617.000     10.000    41.2634     0.0000   -39.4429   -13.9680    -1.8956     2.8810    20.6309    41.2634     0.6463    14.6339    14.6339    -0.0000     1.4426     1.4885     1.0000     2.000
     94    -0.0001     1.0001     0.1460     10.276    160.000 259617.000     10.000    41.2634     0.0000   -39.2890   -13.9857    -1.8930     2.8894    20.6309    41.2634     0.6471    14.6339    14.6339    -0.0000     1.4429     1.4915     1.0000     2.000
     95    -0.0000     0.9995     0.1479     10.245    165.000 259617.000     10.000    41.2634     0.0000   -39.1352   -13.9857    -1.8964     2.8874    20.6309    41.2634     0.6471    14.6339    14.6339    -0.0000     1.4427     1.4885     1.0000     2.000
     96     0.0002     0.9999     0.1500     10.288    176.000 259617.000     10.000    41.2634     0.0000   -38.9818   -13.9995    -1.8979     2.9019    20.6309    41.2634     0.6477    14.6339    14.6339    -0.0000     1.4426     1.4892     1.0000     2.000
     97    -0.0009     0.9993     0.1518     10.259    180.000 259617.000     10.000    41.2634     0.0000   -38.8285   -13.9995    -1.8530     2.8883    20.6309    41.2634     0.6477    14.6339    14.6339    -0.0000     1.4429     1.4900     1.0000     2.000
     98    -0.0001     1.0000     0.1540     10.295    178.000 259617.000     10.000    41.2634     0.0000   -38.6755   -14.0182    -1.8923     2.8932    20.6309    41.2634     0.6486    14.6339    14.6339    -0.0000     1.4426     1.4899     1.0000     2.000
     99     0.0000     0.9994     0.1559     10.223    218.000 259617.000     10.000    41.2634     0.0000   -38.5228   -14.0182    -1.8961     2.8921    20.6309    41.2634     0.6486    14.6339    14.6339    -0.0000     1.4427     1.4896     1.0000     2.000
    100    -0.0021     1.0001     0.1580     10.249    171.000 259617.000     10.000    41.2634     0.0000   -38.3703   -14.0359    -1.7954     2.8913    20.6309    41.2634     0.6494    14.6339    14.6339    -0.0000     1.4427     1.4879     1.0000     2.000
    101    -0.0002     0.9994     0.1599     10.300    195.000 259617.000     10.000    41.2634     0.0000   -38.2180   -14.0359    -1.8867     2.8905    20.6309    41.2634     0.6494    14.6339    14.6339    -0.0000     1.4427     1.4891     1.0000     2.000
    102     0.0001     1.0000     0.1620     10.321    210.000 259617.000     10.000    41.2634     0.0000   -38.0660   -14.0526    -1.8974     2.8999    20.6309    41.2634     0.6502    14.6339    14.6339    -0.0000     1.4427     1.4906     1.0000     2.000
    103    -0.0000     0.9994     0.1638     10.284    189.000 259617.000     10.000    41.2634     0.0000   -37.9142   -14.0526    -1.8918     2.8966    20.6309    41.2634     0.6502    14.6339    14.6339    -0.0000     1.4427     1.4882     1.0000     2.000
    104    -0.0002     1.0000     0.1660     10.246    208.000 259617.000     10.000    41.2634     0.0000   -37.7627   -14.0703    -1.8885     2.8902    20.6309    41.2634     0.6510    14.6339    14.6339    -0.0000     1.4426     1.4887     1.0000     2.000
    105     0.0001     0.9993     0.1678     10.262    198.000 259617.000     10.000    41.2634     0.0000   -37.6115   -14.0703    -1.8975     2.8960    20.6309    41.2634     0.6510    14.6339    14.6339    -0.0000     1.4427     1.4885     1.0000     2.000
    106     0.0002     1.0000     0.1700     10.227    214.000 259617.000     10.000    41.2634     0.0000   -37.4605   -14.0900    -1.8995     2.8994    20.6309    41.2634     0.6519    14.6339    14.6339    -0.0000     1.4427     1.4907     1.0000     2.000
    107    -0.0018     0.9994     0.1718     10.278    207.000 259617.000     10.000    41.2634     0.0000   -37.3097   -14.0900    -1.8179     2.8772    20.6309    41.2634     0.6519    14.6339    14.6339    -0.0000     1.4426     1.4895     1.0000     2.000
    108     0.0003     1.0001     0.1740     10.244    223.000 259617.000     10.000    41.2634     0.0000   -37.1593   -14.1097    -1.9073     2.8922    20.6309    41.2634     0.6528    14.6339    14.6339    -0.0000     1.4425     1.4891     1.0000     2.000
    109    -0.0001     0.9994     0.1758     10.204    213.000 259617.000     10.000    41.2634     0.0000   -37.0090   -14.1097    -1.8967     2.8810    20.6309    41.2634     0.6528    14.6339    14.6339    -0.0000     1.4427     1.4898     1.0000     2.000
    110    -0.0001     1.0000     0.1780     10.258    232.000 259617.000     10.000    41.2634     0.0000   -36.8591   -14.1274    -1.8926     2.8869    20.6309    41.2634     0.6536    14.6339    14.6339    -0.0000     1.4425     1.4890     1.0000     2.000
    111    -0.0002     0.9999     0.1800     10.249    208.000 259617.000     10.000    41.2634     0.0000   -36.7094   -14.1363    -1.8846     2.8936    20.6309    41.2634     0.6540    14.6339    14.6339    -0.0000     1.4426     1.4913     1.0000     2.000
    112    -0.0001     1.0001     0.1820     10.281    208.000 259617.000     10.000    41.2634     0.0000   -36.5600   -14.1491    -1.8935     2.8866    20.6309    41.2634     0.6546    14.6339    14.6339    -0.0000     1.4428     1.4907     1.0000     2.000
    113    -0.0001     0.9994     0.1838     10.262    197.000 259617.000     10.000    41.2634     0.0000   -36.4108   -14.1491    -1.8957     2.8867    20.6309    41.2634     0.6546    14.6339    14.6339    -0.0000     1.4429     1.4889     1.0000     2.000
    114    -0.0024     1.0002     0.1860     10.307    199.000 259617.000     10.000    41.2634     0.0000   -36.2620   -14.1707    -1.7910     2.8828    20.6309    41.2634     0.6556    14.6339    14.6339    -0.0000     1.4427     1.4889     1.0000     2.000
    115    -0.0000     0.9995     0.1878     10.322    198.000 259617.000     10.000    41.2634     0.0000   -36.1134   -14.1707    -1.8965     2.8880    20.6309    41.2634     0.6556    14.6339    14.6339    -0.0000     1.4424     1.4894     1.0000     2.000
    116    -0.0003     0.9999     0.1900     10.253    211.000 259617.000     10.000    41.2634     0.0000   -35.9650   -14.1875    -1.8860     2.8879    20.6309    41.2634     0.6564    14.6339    14.6339    -0.0000     1.4427     1.4903     1.0000     2.000
    117     0.0000     0.9999     0.1920     10.254    236.000 259617.000     10.000    41.2634     0.0000   -35.8170   -14.1983    -1.8978     2.8907    20.6309    41.2634     0.6569    14.6339    14.6339    -0.0000     1.4428     1.4913     1.0000     2.000
    118    -0.0011     1.0000     0.1940     10.277    225.000 259617.000     10.000    41.2634     0.0000   -35.6692   -14.2101    -1.8480     2.8890    20.6309    41.2634     0.6574    14.6339    14.6339    -0.0000     1.4422     1.4892     1.0000     2.000
    119    -0.0001     1.0000     0.1960     10.257    239.000 259617.000     10.000    41.2634     0.0000   -35.5217   -14.2209    -1.8944     2.8826    20.6309    41.2634     0.6579    14.6339    14.6339    -0.0000     1.4424     1.4883     1.0000     2.000
    120    -0.0001     1.0000     0.1980     10.228    247.000 259617.000     10.000    41.2634     0.0000   -35.3745   -14.2318    -1.8909     2.8949    20.6309    41.2634     0.6584    14.6339    14.6339    -0.0000     1.4423     1.4893     1.0000     2.000
    121    -0.0011     0.9999     0.2000     10.241    261.000 259617.000     10.000    41.2634     0.0000   -35.2276   -14.2416    -1.8456     2.8911    20.6309    41.2634     0.6589    14.6339    14.6339    -0.0000     1.4427     1.4887     1.0000     2.000
    122    -0.0029     1.0001     0.2020     10.180    257.000 259617.000     10.000    41.2634     0.0000   -35.0809   -14.2544    -1.7665     2.8858    20.6309    41.2634     0.6594    14.6339    14.6339    -0.0000     1.4425     1.4882     1.0000     2.000
    123    -0.0008     1.0000     0.2040     10.246    267.000 259617.000     10.000    41.2634     0.0000   -34.9345   -14.2642    -1.8589     2.8907    20.6309    41.2634     0.6599    14.6339    14.6339    -0.0000     1.4423     1.4891     1.0000     2.000
    124    -0.0012     1.0000     0.2060     10.279    287.000 259617.000     10.000    41.2634     0.0000   -34.7885   -14.2761    -1.8409     2.8942    20.6309    41.2634     0.6604    14.6339    14.6339    -0.0000     1.4423     1.4896     1.0000     2.000
    125     0.0001     1.0000     0.2080     10.306    309.000 259617.000     10.000    41.2634     0.0000   -34.6427   -14.2869    -1.8961     2.8961    20.6309    41.2634     0.6609    14.6339    14.6339    -0.0000     1.4421     1.4895     1.0000     2.000
    126    -0.0003     1.0000     0.2100     10.270    328.000 259617.000     10.000    41.2634     0.0000   -34.4972   -14.2977    -1.8916     2.8728    20.6309    41.2634     0.6614    14.6339    14.6339    -0.0000     1.4422     1.4894     1.0000     2.000
    127    -0.0002     1.0000     0.2120     10.293    407.000 259617.000     10.000    41.2634     0.0000   -34.3520   -14.3105    -1.8888     2.8879    20.6309    41.2634     0.6620    14.6339    14.6339    -0.0000     1.4420     1.4887     1.0000     2.000
    128    -0.0011     1.0000     0.2140     10.253    519.000 259617.000     10.000    41.2634     0.0000   -34.2070   -14.3213    -1.8514     2.8811    20.6309    41.2634     0.6625    14.6339    14.6339    -0.0000     1.4424     1.4891     1.0000     2.000
    129    -0.0000     1.0000     0.2160     10.253    706.000 259617.000     10.000    41.2634     0.0000   -34.0624   -14.3331    -1.8972     2.8866    20.6309    41.2634     0.6631    14.6339    14.6339    -0.0000     1.4427     1.4898     1.0000     2.000
    130    -0.0003     1.0000     0.2180     10.252    913.000 259617.000     10.000    41.2634     0.0000   -33.9181   -14.3450    -1.8931     2.8741    20.6309    41.2634     0.6636    14.6339    14.6339    -0.0000     1.4422     1.4910     1.0000     2.000
    131    -0.0002     0.9999     0.2200     10.300   1205.000 259617.000     10.000    41.2634     0.0000   -33.7741   -14.3558    -1.8916     2.8827    20.6309    41.2634     0.6641    14.6339    14.6339    -0.0000     1.4421     1.4894     1.0000     2.000
    132    -0.0017     1.0000     0.2220     10.288   1871.000 259617.000     10.000    41.2634     0.0000   -33.6303   -14.3696    -1.8239     2.8844    20.6309    41.2634     0.6647    14.6339    14.6339    -0.0000     1.4426     1.4895     1.0000     2.000
    133    -0.0001     1.0000     0.2240     10.262   3976.000 259617.000     10.000    41.2634     0.0000   -33.4869   -14.3804    -1.8923     2.8894    20.6309    41.2634     0.6652    14.6339    14.6339    -0.0000     1.4420     1.4881     1.0000     2.000
    134    -0.0015     1.0000     0.2260     10.277   8542.000 259617.000     10.000    41.2634     0.0000   -33.3437   -14.3932    -1.8343     2.8862    20.6309    41.2634     0.6658    14.6339    14.6339    -0.0000     1.4425     1.4885     1.0000     2.000
    135    -0.0002     1.0000     0.2280     10.243  17246.000 259617.000     10.000    41.2634     0.0000   -33.2009   -14.4060    -1.8926     2.8811    20.6309    41.2634     0.6664    14.6339    14.6339    -0.0000     1.4424     1.4892     1.0000     2.000
    136    -0.0001     0.9999     0.2300     10.280  32949.000 259617.000     10.000    41.2634     0.0000   -33.0584   -14.4168    -1.8969     2.8802    20.6309    41.2634     0.6669    14.6339    14.6339    -0.0000     1.4424     1.4886     1.0000     2.000
    137    -0.0001     1.0001     0.2320     10.242  43686.000 259617.000     10.000    41.2634     0.0000   -32.9161   -14.4316    -1.8903     2.8894    20.6309    41.2634     0.6676    14.6339    14.6339    -0.0000     1.4419     1.4884     1.0000     2.000
    138    -0.0004     1.0000     0.2340     10.287  36107.000 259617.000     10.000    41.2634     0.0000   -32.7742   -14.4424    -1.8816     2.8870    20.6309    41.2634     0.6681    14.6339    14.6339    -0.0000     1.4424     1.4876     1.0000     2.000
    139     0.0000     1.0000     0.2360     10.278  22440.000 259617.000     10.000    41.2634     0.0000   -32.6326   -14.4562    -1.8946     2.8961    20.6309    41.2634     0.6687    14.6339    14.6339    -0.0000     1.4424     1.4893     1.0000     2.000
    140     0.0012     1.0000     0.2380     10.236  12550.000 259617.000     10.000    41.2634     0.0000   -32.4913   -14.4680    -1.9429     2.8979    20.6309    41.2634     0.6693    14.6339    14.6339    -0.0000     1.4423     1.4878     1.0000     2.000
    141     0.0002     1.0000     0.2400     10.250   7957.000 259617.000     10.000    41.2634     0.0000   -32.3503   -14.4808    -1.8984     2.9007    20.6309    41.2634     0.6699    14.6339    14.6339    -0.0000     1.4423     1.4876     1.0000     2.000
    142    -0.0007     1.0000     0.2420     10.217   5069.000 259617.000     10.000    41.2634     0.0000   -32.2096   -14.4946    -1.8702     2.8850    20.6309    41.2634     0.6705    14.6339    14.6339    -0.0000     1.4423     1.4890     1.0000     2.000
    143    -0.0003     0.9999     0.2440     10.254   2280.000 259617.000     10.000    41.2634     0.0000   -32.0692   -14.5064    -1.8913     2.8703    20.6309    41.2634     0.6710    14.6339    14.6339    -0.0000     1.4422     1.4902     1.0000     2.000
    144    -0.0001     1.0000     0.2460     10.240   1119.000 259617.000     10.000    41.2634     0.0000   -31.9291   -14.5211    -1.8971     2.8757    20.6309    41.2634     0.6717    14.6339    14.6339    -0.0000     1.4417     1.4882     1.0000     2.000
    145    -0.0002     1.0000     0.2480     10.250    842.000 259617.000     10.000    41.2634     0.0000   -31.7894   -14.5339    -1.8938     2.8799    20.6309    41.2634     0.6723    14.6339    14.6339    -0.0000     1.4425     1.4876     1.0000     2.000
    146     0.0001     1.0000     0.2500     10.323    645.000 259617.000     10.000    41.2634     0.0000   -31.6499   -14.5467    -1.8970     2.8947    20.6309    41.2634     0.6729    14.6339    14.6339    -0.0000     1.4424     1.4893     1.0000     2.000
    147    -0.0000     1.0000     0.2520     10.256    480.000 259617.000     10.000    41.2634     0.0000   -31.5108   -14.5605    -1.8927     2.8972    20.6309    41.2634     0.6735    14.6339    14.6339    -0.0000     1.4423     1.4890     1.0000     2.000
    148     0.0001     1.0001     0.2540     10.236    358.000 259617.000     10.000    41.2634     0.0000   -31.3720   -14.5753    -1.8976     2.8979    20.6309    41.2634     0.6742    14.6339    14.6339    -0.0000     1.4421     1.4902     1.0000     2.000
    149     0.0002     1.0000     0.2560     10.285    327.000 259617.000     10.000    41.2634     0.0000   -31.2335   -14.5871    -1.9042     2.8935    20.6309    41.2634     0.6748    14.6339    14.6339    -0.0000     1.4424     1.4891     1.0000     2.000
    150    -0.0001     1.0000     0.2580     10.281    324.000 259617.000     10.000    41.2634     0.0000   -31.0953   -14.6009    -1.8984     2.8731    20.6309    41.2634     0.6754    14.6339    14.6339    -0.0000     1.4420     1.4897     1.0000     2.000
    151    -0.0002     1.0000     0.2600     10.267    329.000 259617.000     10.000    41.2634     0.0000   -30.9575   -14.6156    -1.8904     2.8819    20.6309    41.2634     0.6761    14.6339    14.6339    -0.0000     1.4423     1.4889     1.0000     2.000
    152     0.0002     1.0000     0.2620     10.271    324.000 259617.000     10.000    41.2634     0.0000   -30.8199   -14.6294    -1.9042     2.8944    20.6309    41.2634     0.6767    14.6339    14.6339    -0.0000     1.4423     1.4892     1.0000     2.000
    153    -0.0012     1.0001     0.2640     10.243    290.000 259617.000     10.000    41.2634     0.0000   -30.6827   -14.6442    -1.8488     2.8805    20.6309    41.2634     0.6774    14.6339    14.6339    -0.0000     1.4422     1.4892     1.0000     2.000
    154    -0.0001     1.0000     0.2660     10.233    260.000 259617.000     10.000    41.2634     0.0000   -30.5458   -14.6570    -1.8941     2.8873    20.6309    41.2634     0.6780    14.6339    14.6339    -0.0000     1.4420     1.4889     1.0000     2.000
    155    -0.0018     1.0001     0.2680     10.208    201.000 259617.000     10.000    41.2634     0.0000   -30.4093   -14.6727    -1.8236     2.8814    20.6309    41.2634     0.6787    14.6339    14.6339    -0.0000     1.4423     1.4892     1.0000     2.000
    156    -0.0002     0.9999     0.2700     10.306    253.000 259617.000     10.000    41.2634     0.0000   -30.2730   -14.6845    -1.8865     2.8950    20.6309    41.2634     0.6792    14.6339    14.6339    -0.0000     1.4422     1.4879     1.0000     2.000
    157     0.0000     1.0001     0.2720     10.243    219.000 259617.000     10.000    41.2634     0.0000   -30.1371   -14.7013    -1.8989     2.8838    20.6309    41.2634     0.6800    14.6339    14.6339    -0.0000     1.4423     1.4880     1.0000     2.000
    158     0.0010     1.0000     0.2740     10.274    237.000 259617.000     10.000    41.2634     0.0000   -30.0015   -14.7150    -1.9392     2.8911    20.6309    41.2634     0.6806    14.6339    14.6339    -0.0000     1.4421     1.4894     1.0000     2.000
    159    -0.0001     1.0000     0.2760     10.293    243.000 259617.000     10.000    41.2634     0.0000   -29.8662   -14.7298    -1.8971     2.8770    20.6309    41.2634     0.6813    14.6339    14.6339    -0.0000     1.4418     1.4894     1.0000     2.000
    160     0.0002     1.0000     0.2780     10.252    217.000 259617.000     10.000    41.2634     0.0000   -29.7313   -14.7436    -1.9077     2.8866    20.6309    41.2634     0.6820    14.6339    14.6339    -0.0000     1.4421     1.4904     1.0000     2.000
    161    -0.0001     1.0000     0.2800     10.248    214.000 259617.000     10.000    41.2634     0.0000   -29.5967   -14.7583    -1.8880     2.8976    20.6309    41.2634     0.6826    14.6339    14.6339    -0.0000     1.4420     1.4903     1.0000     2.000
    162    -0.0003     1.0000     0.2820     10.266    203.000 259617.000     10.000    41.2634     0.0000   -29.4624   -14.7741    -1.8888     2.8815    20.6309    41.2634     0.6834    14.6339    14.6339    -0.0000     1.4417     1.4883     1.0000     2.000
    163    -0.0001     1.0000     0.2840     10.279    217.000 259617.000     10.000    41.2634     0.0000   -29.3284   -14.7879    -1.8963     2.8840    20.6309    41.2634     0.6840    14.6339    14.6339    -0.0000     1.4417     1.4890     1.0000     2.000
    164    -0.0002     0.9999     0.2860     10.267    205.000 259617.000     10.000    41.2634     0.0000   -29.1948   -14.8026    -1.8891     2.8887    20.6309    41.2634     0.6847    14.6339    14.6339    -0.0000     1.4419     1.4890     1.0000     2.000
    165    -0.0025     1.0000     0.2880     10.251    189.000 259617.000     10.000    41.2634     0.0000   -29.0615   -14.8194    -1.7952     2.8809    20.6309    41.2634     0.6854    14.6339    14.6339    -0.0000     1.4420     1.4896     1.0000     2.000
    166     0.0001     1.0000     0.2900     10.265    219.000 259617.000     10.000    41.2634     0.0000   -28.9285   -14.8331    -1.8960     2.8967    20.6309    41.2634     0.6861    14.6339    14.6339    -0.0000     1.4416     1.4883     1.0000     2.000
    167    -0.0001     1.0000     0.2920     10.266    207.000 259617.000     10.000    41.2634     0.0000   -28.7959   -14.8489    -1.8930     2.8860    20.6309    41.2634     0.6868    14.6339    14.6339    -0.0000     1.4418     1.4886     1.0000     2.000
    168    -0.0031     1.0000     0.2940     10.231    204.000 259617.000     10.000    41.2634     0.0000   -28.6636   -14.8646    -1.7709     2.8830    20.6309    41.2634     0.6875    14.6339    14.6339    -0.0000     1.4420     1.4890     1.0000     2.000
    169    -0.0002     1.0000     0.2960     10.243    241.000 259617.000     10.000    41.2634     0.0000   -28.5316   -14.8804    -1.8878     2.8921    20.6309    41.2634     0.6882    14.6339    14.6339    -0.0000     1.4415     1.4890     1.0000     2.000
    170    -0.0022     1.0000     0.2980     10.245    221.000 259617.000     10.000    41.2634     0.0000   -28.4000   -14.8961    -1.8061     2.8906    20.6309    41.2634     0.6890    14.6339    14.6339    -0.0000     1.4419     1.4895     1.0000     2.000
    171    -0.0016     1.0000     0.3000     10.294    230.000 259617.000     10.000    41.2634     0.0000   -28.2687   -14.9109    -1.8296     2.8895    20.6309    41.2634     0.6896    14.6339    14.6339    -0.0000     1.4418     1.4890     1.0000     2.000
    172    -0.0000     1.0000     0.3020     10.257    207.000 259617.000     10.000    41.2634     0.0000   -28.1377   -14.9276    -1.8960     2.8850    20.6309    41.2634     0.6904    14.6339    14.6339    -0.0000     1.4416     1.4889     1.0000     2.000
    173    -0.0012     0.9999     0.3040     10.295    211.000 259617.000     10.000    41.2634     0.0000   -28.0071   -14.9414    -1.8430     2.8959    20.6309    41.2634     0.6910    14.6339    14.6339    -0.0000     1.4416     1.4882     1.0000     2.000
    174    -0.0001     1.0001     0.3060     10.293    201.000 259617.000     10.000    41.2634     0.0000   -27.8768   -14.9601    -1.8919     2.8870    20.6309    41.2634     0.6919    14.6339    14.6339    -0.0000     1.4419     1.4883     1.0000     2.000
    175    -0.0016     0.9999     0.3080     10.300    183.000 259617.000     10.000    41.2634     0.0000   -27.7469   -14.9739    -1.8305     2.8930    20.6309    41.2634     0.6925    14.6339    14.6339    -0.0000     1.4418     1.4881     1.0000     2.000
    176     0.0001     1.0001     0.3100     10.265    198.000 259617.000     10.000    41.2634     0.0000   -27.6172   -14.9926    -1.8960     2.8972    20.6309    41.2634     0.6934    14.6339    14.6339    -0.0000     1.4413     1.4882     1.0000     2.000
    177     0.0001     0.9999     0.3120     10.282    207.000 259617.000     10.000    41.2634     0.0000   -27.4880   -15.0054    -1.8974     2.8955    20.6309    41.2634     0.6940    14.6339    14.6339    -0.0000     1.4414     1.4899     1.0000     2.000
    178    -0.0000     1.0001     0.3140     10.247    189.000 259617.000     10.000    41.2634     0.0000   -27.3590   -15.0241    -1.8988     2.8775    20.6309    41.2634     0.6949    14.6339    14.6339    -0.0000     1.4417     1.4898     1.0000     2.000
    179    -0.0001     1.0000     0.3160     10.293    193.000 259617.000     10.000    41.2634     0.0000   -27.2304   -15.0398    -1.8918     2.8890    20.6309    41.2634     0.6956    14.6339    14.6339    -0.0000     1.4414     1.4886     1.0000     2.000
    180    -0.0024     1.0000     0.3180     10.270    186.000 259617.000     10.000    41.2634     0.0000   -27.1022   -15.0556    -1.7985     2.8888    20.6309    41.2634     0.6963    14.6339    14.6339    -0.0000     1.4415     1.4884     1.0000     2.000
    181    -0.0001     0.9999     0.3199     10.238    230.000 259617.000     10.000    41.2634     0.0000   -26.9742   -15.0703    -1.8927     2.8926    20.6309    41.2634     0.6970    14.6339    14.6339    -0.0000     1.4414     1.4900     1.0000     2.000
    182    -0.0012     1.0000     0.3220     10.274    216.000 259617.000     10.000    41.2634     0.0000   -26.8467   -15.0900    -1.8447     2.8964    20.6309    41.2634     0.6979    14.6339    14.6339    -0.0000     1.4411     1.4892     1.0000     2.000
    183    -0.0024     0.9999     0.3240     10.272    216.000 259617.000     10.000    41.2634     0.0000   -26.7194   -15.1048    -1.8037     2.8841    20.6309    41.2634     0.6986    14.6339    14.6339    -0.0000     1.4412     1.4887     1.0000     2.000
    184    -0.0010     1.0001     0.3260     10.267    213.000 259617.000     10.000    41.2634     0.0000   -26.5925   -15.1245    -1.8577     2.8877    20.6309    41.2634     0.6995    14.6339    14.6339    -0.0000     1.4415     1.4894     1.0000     2.000
    185    -0.0001     1.0000     0.3280     10.227    179.000 259617.000     10.000    41.2634     0.0000   -26.4660   -15.1392    -1.8974     2.8751    20.6309    41.2634     0.7001    14.6339    14.6339    -0.0000     1.4418     1.4891     1.0000     2.000
    186    -0.0016     1.0001     0.3300     10.263    206.000 259617.000     10.000    41.2634     0.0000   -26.3398   -15.1579    -1.8338     2.8808    20.6309    41.2634     0.7010    14.6339    14.6339    -0.0000     1.4413     1.4892     1.0000     2.000
    187    -0.0001     0.9999     0.3319     10.287    238.000 259617.000     10.000    41.2634     0.0000   -26.2139   -15.1717    -1.8880     2.8960    20.6309    41.2634     0.7016    14.6339    14.6339    -0.0000     1.4412     1.4898     1.0000     2.000
    188    -0.0007     1.0001     0.3340     10.306    204.000 259617.000     10.000    41.2634     0.0000   -26.0884   -15.1924    -1.8667     2.8926    20.6309    41.2634     0.7026    14.6339    14.6339    -0.0000     1.4416     1.4914     1.0000     2.000
    189    -0.0001     1.0000     0.3360     10.268    192.000 259617.000     10.000    41.2634     0.0000   -25.9632   -15.2072    -1.8951     2.8757    20.6309    41.2634     0.7033    14.6339    14.6339    -0.0000     1.4411     1.4906     1.0000     2.000
    190    -0.0002     1.0000     0.3380     10.235    186.000 259617.000     10.000    41.2634     0.0000   -25.8383   -15.2259    -1.8932     2.8795    20.6309    41.2634     0.7041    14.6339    14.6339    -0.0000     1.4412     1.4915     1.0000     2.000
    191    -0.0021     1.0000     0.3400     10.274    175.000 259617.000     10.000    41.2634     0.0000   -25.7138   -15.2426    -1.8165     2.8769    20.6309    41.2634     0.7049    14.6339    14.6339    -0.0000     1.4410     1.4887     1.0000     2.000
    192    -0.0001     1.0000     0.3420     10.290    214.000 259617.000     10.000    41.2634     0.0000   -25.5897   -15.2593    -1.8939     2.8822    20.6309    41.2634     0.7057    14.6339    14.6339    -0.0000     1.4411     1.4888     1.0000     2.000
    193    -0.0001     1.0001     0.3441     10.251    182.000 259617.000     10.000    41.2634     0.0000   -25.4658   -15.2800    -1.8892     2.8953    20.6309    41.2634     0.7066    14.6339    14.6339    -0.0000     1.4411     1.4919     1.0000     2.000
    194    -0.0022     0.9999     0.3459     10.285    206.000 259617.000     10.000    41.2634     0.0000   -25.3424   -15.2928    -1.8113     2.8843    20.6309    41.2634     0.7072    14.6339    14.6339    -0.0000     1.4411     1.4887     1.0000     2.000
    195    -0.0001     1.0001     0.3481     10.233    208.000 259617.000     10.000    41.2634     0.0000   -25.2193   -15.3154    -1.8891     2.8999    20.6309    41.2634     0.7082    14.6339    14.6339    -0.0000     1.4414     1.4894     1.0000     2.000
    196    -0.0001     0.9999     0.3500     10.236    196.000 259617.000     10.000    41.2634     0.0000   -25.0965   -15.3292    -1.8942     2.8821    20.6309    41.2634     0.7089    14.6339    14.6339    -0.0000     1.4405     1.4894     1.0000     2.000
# Sum of Counts = 244303
# Center of Mass = 0.213855+/-0.000626
# Full Width Half-Maximum = 0.131129+/-0.000429
# 10:30:02 PM  3/12/2016   scan completed.
