# scan = 237
# date = 3/13/2016
# time = 7:46:31 AM
# proposal = IPTS-15083.1
# experiment = Evolution of the magnetic structure with applied field in multiferroic (ND4)2[FeCl5(D2O)]
# experiment_number = 718
# command = scan h 0 k 1 l -0.04 0.35 0.002 preset mcu 10
# builtin_command = scan h 0 k 1 l -0.04 0.35 0.002 preset mcu 10
# users = Wei Tian, Jaime Fernandez-Baca, Huibo Cao
# local_contact = Wei Tian
# scan_title = scan (0 1 L), 1.5K, 4.8 T
# monochromator = PG002
# analyzer = Pg002
# sense = +-+
# collimation = 40-40-40-60
# samplename = (ND4)2[FeCl5(D2O)]
# sampletype = crystal
# samplemosaic = 30.000000
# latticeconstants = 13.659912,9.922999,6.896657,90.000000,90.000000,90.000000
# ubmatrix = -0.002420,0.072257,0.100960,-0.003695,0.069997,-0.104056,-0.073074,-0.005932,0.001919
# mode = 0
# plane_normal = 0.033051,0.050478,0.998178
# ubconf = UB11Mar2016_12747PM.ini
# preset_type = normal 
# preset_channel = mcu
# preset_value = 10.000000
# def_x = l
# def_y = detector
# col_headers = 
#   Pt.          h          k          l       time   detector    monitor        mcu         m2      mag_e         s1         s2        sgl        sgu         a1         a2          q         ei         ef          e    coldtip    tsample       temp persistent_field
      1    -0.0006     1.0001    -0.0400     10.284    145.000 259617.000     10.000    41.2634     0.0000   -54.3131   -13.7091    -1.8631     2.8888    20.6309    41.2644     0.6343    14.6339    14.6332     0.0007     1.5367     1.7013     1.0000     4.800
      2    -0.0002     1.0006    -0.0380     10.280    138.000 259617.000     10.000    41.2634     0.0000   -54.1476   -13.7131    -1.8879     2.8880    20.6309    41.2644     0.6345    14.6339    14.6332     0.0007     1.5366     1.6944     1.0000     4.800
      3    -0.0007     1.0007    -0.0360     10.300    128.000 259617.000     10.000    41.2634     0.0000   -53.9822   -13.7121    -1.8583     2.8886    20.6309    41.2644     0.6345    14.6339    14.6332     0.0007     1.5350     1.6947     1.0000     4.800
      4    -0.0001     1.0005    -0.0340     10.260    158.000 259617.000     10.000    41.2634     0.0000   -53.8167   -13.7072    -1.8950     2.8880    20.6309    41.2644     0.6342    14.6339    14.6332     0.0007     1.5355     1.6920     1.0000     4.800
      5     0.0002     1.0005    -0.0320     10.286    141.000 259617.000     10.000    41.2634     0.0000   -53.6513   -13.7052    -1.9125     2.8890    20.6309    41.2644     0.6342    14.6339    14.6332     0.0007     1.5367     1.6983     1.0000     4.800
      6    -0.0000     1.0002    -0.0300     10.272    152.000 259617.000     10.000    41.2634     0.0000   -53.4859   -13.7003    -1.8956     2.8919    20.6309    41.2644     0.6339    14.6339    14.6332     0.0007     1.5357     1.6963     1.0000     4.800
      7    -0.0005     1.0006    -0.0280     10.266    150.000 259617.000     10.000    41.2634     0.0000   -53.3204   -13.7032    -1.8651     2.8939    20.6309    41.2644     0.6341    14.6339    14.6332     0.0007     1.5357     1.6956     1.0000     4.800
      8    -0.0000     1.0003    -0.0260     10.210    137.000 259617.000     10.000    41.2634     0.0000   -53.1551   -13.6983    -1.8914     2.8957    20.6309    41.2644     0.6338    14.6339    14.6332     0.0007     1.5356     1.6947     1.0000     4.800
      9     0.0004     1.0004    -0.0240     10.218    165.000 259617.000     10.000    41.2634     0.0000   -52.9897   -13.6983    -1.9195     2.8953    20.6309    41.2644     0.6338    14.6339    14.6332     0.0007     1.5359     1.6956     1.0000     4.800
     10     0.0000     1.0002    -0.0220     10.234    198.000 259617.000     10.000    41.2634     0.0000   -52.8243   -13.6934    -1.8989     2.8918    20.6309    41.2644     0.6336    14.6339    14.6332     0.0007     1.5356     1.6901     1.0000     4.800
     11     0.0000     1.0005    -0.0200     10.241    207.000 259617.000     10.000    41.2634     0.0000   -52.6590   -13.6963    -1.9004     2.8909    20.6309    41.2644     0.6337    14.6339    14.6332     0.0007     1.5359     1.6963     1.0000     4.800
     12    -0.0001     1.0002    -0.0180     10.262    207.000 259617.000     10.000    41.2634     0.0000   -52.4937   -13.6914    -1.8935     2.8893    20.6309    41.2644     0.6335    14.6339    14.6332     0.0007     1.5363     1.6993     1.0000     4.800
     13    -0.0001     1.0002    -0.0160     10.231    218.000 259617.000     10.000    41.2634     0.0000   -52.3285   -13.6914    -1.8913     2.8895    20.6309    41.2644     0.6335    14.6339    14.6332     0.0007     1.5358     1.6978     1.0000     4.800
     14    -0.0007     1.0003    -0.0140     10.222    225.000 259617.000     10.000    41.2634     0.0000   -52.1632   -13.6914    -1.8568     2.8908    20.6309    41.2644     0.6335    14.6339    14.6332     0.0007     1.5359     1.6974     1.0000     4.800
     15     0.0000     1.0002    -0.0120     10.272    276.000 259617.000     10.000    41.2634     0.0000   -51.9980   -13.6894    -1.8949     2.8954    20.6309    41.2644     0.6334    14.6339    14.6332     0.0007     1.5379     1.7043     1.0000     4.800
     16    -0.0003     1.0003    -0.0100     10.262    279.000 259617.000     10.000    41.2634     0.0000   -51.8329   -13.6904    -1.8832     2.8904    20.6309    41.2644     0.6335    14.6339    14.6332     0.0007     1.5357     1.6914     1.0000     4.800
     17     0.0000     1.0002    -0.0080     10.228    484.000 259617.000     10.000    41.2634     0.0000   -51.6678   -13.6875    -1.8956     2.8959    20.6309    41.2644     0.6333    14.6339    14.6332     0.0007     1.5357     1.7028     1.0000     4.800
     18    -0.0000     1.0003    -0.0060     10.254    873.000 259617.000     10.000    41.2634     0.0000   -51.5027   -13.6885    -1.8954     2.8925    20.6309    41.2644     0.6334    14.6339    14.6332     0.0007     1.5355     1.6980     1.0000     4.800
     19     0.0005     1.0005    -0.0040     10.270   1435.000 259617.000     10.000    41.2634     0.0000   -51.3377   -13.6914    -1.9266     2.8912    20.6309    41.2644     0.6335    14.6339    14.6332     0.0007     1.5358     1.6928     1.0000     4.800
     20    -0.0001     1.0002    -0.0020     10.295   2389.000 259617.000     10.000    41.2634     0.0000   -51.1728   -13.6875    -1.8963     2.8871    20.6309    41.2644     0.6333    14.6339    14.6332     0.0007     1.5347     1.6960     1.0000     4.800
     21    -0.0000     1.0003     0.0000     10.244   2826.000 259617.000     10.000    41.2634     0.0000   -51.0079   -13.6885    -1.8975     2.8884    20.6309    41.2644     0.6334    14.6339    14.6332     0.0007     1.5350     1.6959     1.0000     4.800
     22    -0.0006     1.0002     0.0020     10.242   2319.000 259617.000     10.000    41.2634     0.0000   -50.8430   -13.6875    -1.8689     2.8880    20.6309    41.2644     0.6333    14.6339    14.6332     0.0007     1.5361     1.6973     1.0000     4.800
     23    -0.0001     1.0002     0.0040     10.239   1493.000 259617.000     10.000    41.2634     0.0000   -50.6782   -13.6875    -1.8986     2.8832    20.6309    41.2644     0.6333    14.6339    14.6332     0.0007     1.5348     1.6975     1.0000     4.800
     24     0.0000     1.0001     0.0060     10.269    992.000 259617.000     10.000    41.2634     0.0000   -50.5135   -13.6865    -1.8951     2.8959    20.6309    41.2644     0.6333    14.6339    14.6332     0.0007     1.5359     1.6932     1.0000     4.800
     25    -0.0006     1.0004     0.0080     10.286    674.000 259617.000     10.000    41.2634     0.0000   -50.3488   -13.6904    -1.8642     2.8903    20.6309    41.2644     0.6335    14.6339    14.6332     0.0007     1.5356     1.6936     1.0000     4.800
     26     0.0000     1.0005     0.0100     10.245    447.000 259617.000     10.000    41.2634     0.0000   -50.1842   -13.6924    -1.8930     2.8963    20.6309    41.2644     0.6336    14.6339    14.6332     0.0007     1.5351     1.6943     1.0000     4.800
     27    -0.0005     1.0003     0.0120     10.263    306.000 259617.000     10.000    41.2634     0.0000   -50.0197   -13.6904    -1.8657     2.8924    20.6309    41.2644     0.6335    14.6339    14.6332     0.0007     1.5350     1.6904     1.0000     4.800
     28     0.0000     1.0002     0.0140     10.279    229.000 259617.000     10.000    41.2634     0.0000   -49.8553   -13.6894    -1.8982     2.8930    20.6309    41.2644     0.6334    14.6339    14.6332     0.0007     1.5338     1.6920     1.0000     4.800
     29    -0.0001     1.0001     0.0160     10.316    203.000 259617.000     10.000    41.2634     0.0000   -49.6909   -13.6894    -1.8926     2.8914    20.6309    41.2644     0.6334    14.6339    14.6332     0.0007     1.5366     1.7005     1.0000     4.800
     30     0.0001     1.0005     0.0180     10.261    177.000 259617.000     10.000    41.2634     0.0000   -49.5266   -13.6953    -1.9004     2.8967    20.6309    41.2644     0.6337    14.6339    14.6332     0.0007     1.5357     1.6968     1.0000     4.800
     31     0.0000     1.0002     0.0200     10.236    205.000 259617.000     10.000    41.2634     0.0000   -49.3624   -13.6924    -1.8941     2.8974    20.6309    41.2644     0.6336    14.6339    14.6332     0.0007     1.5364     1.6991     1.0000     4.800
     32     0.0006     1.0004     0.0220     10.242    169.000 259617.000     10.000    41.2634     0.0000   -49.1983   -13.6963    -1.9295     2.8951    20.6309    41.2644     0.6337    14.6339    14.6332     0.0007     1.5357     1.6974     1.0000     4.800
     33    -0.0001     1.0002     0.0240     10.268    186.000 259617.000     10.000    41.2634     0.0000   -49.0342   -13.6953    -1.8951     2.8885    20.6309    41.2644     0.6337    14.6339    14.6332     0.0007     1.5350     1.6950     1.0000     4.800
     34    -0.0012     1.0003     0.0260     10.282    161.000 259617.000     10.000    41.2634     0.0000   -48.8703   -13.6983    -1.8399     2.8825    20.6309    41.2644     0.6338    14.6339    14.6332     0.0007     1.5355     1.6930     1.0000     4.800
     35    -0.0000     1.0000     0.0280     10.239    157.000 259617.000     10.000    41.2634     0.0000   -48.7064   -13.6953    -1.8944     2.8918    20.6309    41.2644     0.6337    14.6339    14.6332     0.0007     1.5347     1.6963     1.0000     4.800
     36     0.0007     0.9999     0.0300     10.219    167.000 259617.000     10.000    41.2634     0.0000   -48.5427   -13.6953    -1.9345     2.8925    20.6309    41.2644     0.6337    14.6339    14.6332     0.0007     1.5344     1.6950     1.0000     4.800
     37     0.0000     0.9997     0.0320     10.267    141.000 259617.000     10.000    41.2634     0.0000   -48.3790   -13.6953    -1.8992     2.8922    20.6309    41.2644     0.6337    14.6339    14.6332     0.0007     1.5356     1.7008     1.0000     4.800
     38    -0.0011     0.9996     0.0339     10.260    141.000 259617.000     10.000    41.2634     0.0000   -48.2154   -13.6953    -1.8430     2.8865    20.6309    41.2644     0.6337    14.6339    14.6332     0.0007     1.5350     1.6880     1.0000     4.800
     39    -0.0000     0.9995     0.0359     10.260    146.000 259617.000     10.000    41.2634     0.0000   -48.0520   -13.6953    -1.8944     2.8932    20.6309    41.2644     0.6337    14.6339    14.6332     0.0007     1.5342     1.6942     1.0000     4.800
     40    -0.0015     0.9993     0.0379     10.256    146.000 259617.000     10.000    41.2634     0.0000   -47.8886   -13.6953    -1.8177     2.8901    20.6309    41.2644     0.6337    14.6339    14.6332     0.0007     1.5341     1.6868     1.0000     4.800
     41    -0.0001     1.0000     0.0400     10.191    142.000 259617.000     10.000    41.2634     0.0000   -47.7253   -13.7072    -1.8913     2.8919    20.6309    41.2644     0.6342    14.6339    14.6332     0.0007     1.5353     1.6949     1.0000     4.800
     42    -0.0003     0.9998     0.0420     10.244    126.000 259617.000     10.000    41.2634     0.0000   -47.5622   -13.7072    -1.8803     2.8930    20.6309    41.2644     0.6342    14.6339    14.6332     0.0007     1.5352     1.6960     1.0000     4.800
     43     0.0001     0.9997     0.0440     10.272    137.000 259617.000     10.000    41.2634     0.0000   -47.3992   -13.7072    -1.9010     2.8947    20.6309    41.2644     0.6342    14.6339    14.6332     0.0007     1.5356     1.6981     1.0000     4.800
     44    -0.0010     0.9995     0.0459     10.273    166.000 259617.000     10.000    41.2634     0.0000   -47.2363   -13.7072    -1.8472     2.8884    20.6309    41.2644     0.6342    14.6339    14.6332     0.0007     1.5350     1.6943     1.0000     4.800
     45    -0.0000     0.9993     0.0479     10.249    147.000 259617.000     10.000    41.2634     0.0000   -47.0735   -13.7072    -1.8955     2.8904    20.6309    41.2644     0.6342    14.6339    14.6332     0.0007     1.5347     1.6959     1.0000     4.800
     46    -0.0017     0.9999     0.0500     10.276    143.000 259617.000     10.000    41.2634     0.0000   -46.9108   -13.7190    -1.8081     2.8875    20.6309    41.2644     0.6348    14.6339    14.6332     0.0007     1.5364     1.7010     1.0000     4.800
     47     0.0001     0.9997     0.0520     10.246    152.000 259617.000     10.000    41.2634     0.0000   -46.7483   -13.7190    -1.9001     2.8943    20.6309    41.2644     0.6348    14.6339    14.6332     0.0007     1.5343     1.6956     1.0000     4.800
     48    -0.0020     0.9995     0.0539     10.236    149.000 259617.000     10.000    41.2634     0.0000   -46.5858   -13.7190    -1.7930     2.8873    20.6309    41.2644     0.6348    14.6339    14.6332     0.0007     1.5353     1.6951     1.0000     4.800
     49    -0.0002     0.9993     0.0559     10.264    144.000 259617.000     10.000    41.2634     0.0000   -46.4236   -13.7190    -1.8915     2.8871    20.6309    41.2644     0.6348    14.6339    14.6332     0.0007     1.5345     1.6910     1.0000     4.800
     50    -0.0003     1.0000     0.0580     10.229    138.000 259617.000     10.000    41.2634     0.0000   -46.2614   -13.7318    -1.8952     2.8747    20.6309    41.2644     0.6354    14.6339    14.6332     0.0007     1.5351     1.6920     1.0000     4.800
     51    -0.0001     0.9997     0.0600     10.279    158.000 259617.000     10.000    41.2634     0.0000   -46.0994   -13.7318    -1.8926     2.8923    20.6309    41.2644     0.6354    14.6339    14.6332     0.0007     1.5354     1.6998     1.0000     4.800
     52    -0.0014     0.9995     0.0619     10.291    138.000 259617.000     10.000    41.2634     0.0000   -45.9375   -13.7318    -1.8212     2.8920    20.6309    41.2644     0.6354    14.6339    14.6332     0.0007     1.5359     1.6932     1.0000     4.800
     53    -0.0000     1.0000     0.0640     10.251    158.000 259617.000     10.000    41.2634     0.0000   -45.7757   -13.7426    -1.8898     2.8978    20.6309    41.2644     0.6359    14.6339    14.6332     0.0007     1.5354     1.6980     1.0000     4.800
     54    -0.0009     0.9997     0.0660     10.260    147.000 259617.000     10.000    41.2634     0.0000   -45.6141   -13.7426    -1.8440     2.8958    20.6309    41.2644     0.6359    14.6339    14.6332     0.0007     1.5349     1.6858     1.0000     4.800
     55    -0.0004     0.9995     0.0679     10.282    149.000 259617.000     10.000    41.2634     0.0000   -45.4527   -13.7426    -1.8736     2.8931    20.6309    41.2644     0.6359    14.6339    14.6332     0.0007     1.5359     1.6923     1.0000     4.800
     56     0.0001     1.0000     0.0700     10.244    128.000 259617.000     10.000    41.2634     0.0000   -45.2914   -13.7544    -1.8982     2.8932    20.6309    41.2644     0.6364    14.6339    14.6332     0.0007     1.5340     1.6939     1.0000     4.800
     57    -0.0000     0.9997     0.0720     10.256    172.000 259617.000     10.000    41.2634     0.0000   -45.1302   -13.7544    -1.8988     2.8868    20.6309    41.2644     0.6364    14.6339    14.6332     0.0007     1.5347     1.6933     1.0000     4.800
     58    -0.0014     0.9994     0.0739     10.246    147.000 259617.000     10.000    41.2634     0.0000   -44.9692   -13.7544    -1.8244     2.8912    20.6309    41.2644     0.6364    14.6339    14.6332     0.0007     1.5348     1.6887     1.0000     4.800
     59    -0.0008     1.0000     0.0760     10.257    159.000 259617.000     10.000    41.2634     0.0000   -44.8083   -13.7662    -1.8567     2.8911    20.6309    41.2644     0.6370    14.6339    14.6332     0.0007     1.5348     1.6894     1.0000     4.800
     60     0.0001     0.9997     0.0779     10.228    134.000 259617.000     10.000    41.2634     0.0000   -44.6476   -13.7662    -1.8957     2.8967    20.6309    41.2644     0.6370    14.6339    14.6332     0.0007     1.5350     1.6979     1.0000     4.800
     61    -0.0000     0.9994     0.0799     10.230    139.000 259617.000     10.000    41.2634     0.0000   -44.4871   -13.7662    -1.8968     2.8909    20.6309    41.2644     0.6370    14.6339    14.6332     0.0007     1.5344     1.6963     1.0000     4.800
     62    -0.0009     1.0000     0.0820     10.239    140.000 259617.000     10.000    41.2634     0.0000   -44.3267   -13.7800    -1.8556     2.8849    20.6309    41.2644     0.6376    14.6339    14.6332     0.0007     1.5344     1.6913     1.0000     4.800
     63     0.0002     0.9997     0.0839     10.257    142.000 259617.000     10.000    41.2634     0.0000   -44.1665   -13.7800    -1.9013     2.8966    20.6309    41.2644     0.6376    14.6339    14.6332     0.0007     1.5344     1.6982     1.0000     4.800
     64    -0.0018     0.9993     0.0859     10.263    169.000 259617.000     10.000    41.2634     0.0000   -44.0064   -13.7800    -1.8067     2.8873    20.6309    41.2644     0.6376    14.6339    14.6332     0.0007     1.5354     1.6957     1.0000     4.800
     65    -0.0001     1.0000     0.0880     10.321    148.000 259617.000     10.000    41.2634     0.0000   -43.8466   -13.7938    -1.8962     2.8877    20.6309    41.2644     0.6382    14.6339    14.6332     0.0007     1.5352     1.7037     1.0000     4.800
     66    -0.0001     0.9996     0.0899     10.314    157.000 259617.000     10.000    41.2634     0.0000   -43.6869   -13.7938    -1.8911     2.8886    20.6309    41.2644     0.6382    14.6339    14.6332     0.0007     1.5352     1.7019     1.0000     4.800
     67    -0.0002     0.9999     0.0920     10.251    127.000 259617.000     10.000    41.2634     0.0000   -43.5273   -13.8036    -1.8874     2.8884    20.6309    41.2644     0.6387    14.6339    14.6332     0.0007     1.5344     1.6944     1.0000     4.800
     68    -0.0001     0.9996     0.0939     10.262    160.000 259617.000     10.000    41.2634     0.0000   -43.3680   -13.8036    -1.8902     2.8934    20.6309    41.2644     0.6387    14.6339    14.6332     0.0007     1.5361     1.7068     1.0000     4.800
     69    -0.0011     1.0000     0.0960     10.274    143.000 259617.000     10.000    41.2634     0.0000   -43.2088   -13.8154    -1.8414     2.8898    20.6309    41.2644     0.6392    14.6339    14.6332     0.0007     1.5357     1.6974     1.0000     4.800
     70    -0.0000     0.9996     0.0979     10.259    148.000 259617.000     10.000    41.2634     0.0000   -43.0498   -13.8154    -1.8931     2.8954    20.6309    41.2644     0.6392    14.6339    14.6332     0.0007     1.5352     1.6988     1.0000     4.800
     71    -0.0002     1.0000     0.1000     10.242    123.000 259617.000     10.000    41.2634     0.0000   -42.8910   -13.8263    -1.8942     2.8824    20.6309    41.2644     0.6397    14.6339    14.6332     0.0007     1.5357     1.6963     1.0000     4.800
     72    -0.0007     0.9996     0.1019     10.273    152.000 259617.000     10.000    41.2634     0.0000   -42.7324   -13.8263    -1.8680     2.8839    20.6309    41.2644     0.6397    14.6339    14.6332     0.0007     1.5353     1.6972     1.0000     4.800
     73    -0.0002     1.0000     0.1040     10.247    147.000 259617.000     10.000    41.2634     0.0000   -42.5739   -13.8371    -1.8903     2.8882    20.6309    41.2644     0.6402    14.6339    14.6332     0.0007     1.5359     1.6992     1.0000     4.800
     74    -0.0019     0.9996     0.1059     10.249    151.000 259617.000     10.000    41.2634     0.0000   -42.4157   -13.8371    -1.8000     2.8897    20.6309    41.2644     0.6402    14.6339    14.6332     0.0007     1.5355     1.6923     1.0000     4.800
     75    -0.0000     1.0000     0.1080     10.248    140.000 259617.000     10.000    41.2634     0.0000   -42.2577   -13.8489    -1.8980     2.8886    20.6309    41.2644     0.6408    14.6339    14.6332     0.0007     1.5350     1.6916     1.0000     4.800
     76    -0.0023     0.9995     0.1099     10.231    161.000 259617.000     10.000    41.2634     0.0000   -42.0998   -13.8489    -1.7857     2.8826    20.6309    41.2644     0.6408    14.6339    14.6332     0.0007     1.5348     1.6878     1.0000     4.800
     77    -0.0000     1.0001     0.1120     10.281    156.000 259617.000     10.000    41.2634     0.0000   -41.9421   -13.8627    -1.8983     2.8882    20.6309    41.2644     0.6414    14.6339    14.6332     0.0007     1.5348     1.7008     1.0000     4.800
     78    -0.0019     0.9996     0.1139     10.255    164.000 259617.000     10.000    41.2634     0.0000   -41.7847   -13.8627    -1.8059     2.8865    20.6309    41.2644     0.6414    14.6339    14.6332     0.0007     1.5355     1.6976     1.0000     4.800
     79    -0.0001     0.9999     0.1160     10.224    134.000 259617.000     10.000    41.2634     0.0000   -41.6274   -13.8735    -1.8917     2.8875    20.6309    41.2644     0.6419    14.6339    14.6332     0.0007     1.5355     1.6979     1.0000     4.800
     80     0.0009     0.9995     0.1179     10.221    151.000 259617.000     10.000    41.2634     0.0000   -41.4704   -13.8735    -1.9403     2.8916    20.6309    41.2644     0.6419    14.6339    14.6332     0.0007     1.5353     1.6950     1.0000     4.800
     81    -0.0010     1.0001     0.1200     10.245    171.000 259617.000     10.000    41.2634     0.0000   -41.3135   -13.8892    -1.8504     2.8854    20.6309    41.2644     0.6426    14.6339    14.6332     0.0007     1.5345     1.6888     1.0000     4.800
     82     0.0000     0.9996     0.1219     10.266    154.000 259617.000     10.000    41.2634     0.0000   -41.1569   -13.8892    -1.9014     2.8861    20.6309    41.2644     0.6426    14.6339    14.6332     0.0007     1.5349     1.6952     1.0000     4.800
     83    -0.0001     1.0000     0.1240     10.264    158.000 259617.000     10.000    41.2634     0.0000   -41.0005   -13.9011    -1.8945     2.8897    20.6309    41.2644     0.6432    14.6339    14.6332     0.0007     1.5350     1.6972     1.0000     4.800
     84    -0.0019     0.9995     0.1259     10.250    151.000 259617.000     10.000    41.2634     0.0000   -40.8443   -13.9011    -1.8072     2.8865    20.6309    41.2644     0.6432    14.6339    14.6332     0.0007     1.5366     1.6977     1.0000     4.800
     85     0.0001     1.0001     0.1280     10.259    149.000 259617.000     10.000    41.2634     0.0000   -40.6883   -13.9168    -1.8993     2.8953    20.6309    41.2644     0.6439    14.6339    14.6332     0.0007     1.5355     1.7005     1.0000     4.800
     86    -0.0008     0.9996     0.1299     10.223    163.000 259617.000     10.000    41.2634     0.0000   -40.5325   -13.9168    -1.8594     2.8910    20.6309    41.2644     0.6439    14.6339    14.6332     0.0007     1.5354     1.6969     1.0000     4.800
     87     0.0001     0.9999     0.1320     10.258    152.000 259617.000     10.000    41.2634     0.0000   -40.3769   -13.9286    -1.9009     2.8912    20.6309    41.2644     0.6444    14.6339    14.6332     0.0007     1.5347     1.6983     1.0000     4.800
     88    -0.0012     0.9994     0.1339     10.233    150.000 259617.000     10.000    41.2634     0.0000   -40.2216   -13.9286    -1.8444     2.8834    20.6309    41.2644     0.6444    14.6339    14.6332     0.0007     1.5360     1.6959     1.0000     4.800
     89    -0.0002     1.0001     0.1360     10.261    184.000 259617.000     10.000    41.2634     0.0000   -40.0665   -13.9463    -1.8873     2.8912    20.6309    41.2644     0.6453    14.6339    14.6332     0.0007     1.5363     1.6961     1.0000     4.800
     90     0.0000     0.9995     0.1379     10.256    166.000 259617.000     10.000    41.2634     0.0000   -39.9116   -13.9463    -1.8961     2.8943    20.6309    41.2644     0.6453    14.6339    14.6332     0.0007     1.5344     1.6959     1.0000     4.800
     91    -0.0014     1.0000     0.1400     10.250    143.000 259617.000     10.000    41.2634     0.0000   -39.7570   -13.9601    -1.8259     2.8919    20.6309    41.2644     0.6459    14.6339    14.6332     0.0007     1.5353     1.6935     1.0000     4.800
     92    -0.0000     0.9994     0.1419     10.243    135.000 259617.000     10.000    41.2634     0.0000   -39.6025   -13.9601    -1.8978     2.8882    20.6309    41.2644     0.6459    14.6339    14.6332     0.0007     1.5348     1.6929     1.0000     4.800
     93    -0.0012     1.0000     0.1440     10.205    154.000 259617.000     10.000    41.2634     0.0000   -39.4483   -13.9768    -1.8399     2.8856    20.6309    41.2644     0.6467    14.6339    14.6332     0.0007     1.5347     1.6875     1.0000     4.800
     94     0.0000     0.9995     0.1459     10.230    162.000 259617.000     10.000    41.2634     0.0000   -39.2944   -13.9768    -1.8999     2.8887    20.6309    41.2644     0.6467    14.6339    14.6332     0.0007     1.5353     1.6966     1.0000     4.800
     95    -0.0005     1.0000     0.1480     10.270    177.000 259617.000     10.000    41.2634     0.0000   -39.1406   -13.9926    -1.8734     2.8858    20.6309    41.2644     0.6474    14.6339    14.6332     0.0007     1.5350     1.6910     1.0000     4.800
     96    -0.0008     0.9994     0.1499     10.246    147.000 259617.000     10.000    41.2634     0.0000   -38.9872   -13.9926    -1.8574     2.8894    20.6309    41.2644     0.6474    14.6339    14.6332     0.0007     1.5350     1.6945     1.0000     4.800
     97    -0.0001     1.0000     0.1520     10.258    159.000 259617.000     10.000    41.2634     0.0000   -38.8339   -14.0093    -1.8938     2.8907    20.6309    41.2644     0.6482    14.6339    14.6332     0.0007     1.5350     1.6988     1.0000     4.800
     98    -0.0010     0.9994     0.1539     10.255    150.000 259617.000     10.000    41.2634     0.0000   -38.6809   -14.0093    -1.8521     2.8869    20.6309    41.2644     0.6482    14.6339    14.6332     0.0007     1.5350     1.6901     1.0000     4.800
     99     0.0001     1.0000     0.1560     10.224    161.000 259617.000     10.000    41.2634     0.0000   -38.5282   -14.0270    -1.8996     2.8924    20.6309    41.2644     0.6490    14.6339    14.6332     0.0007     1.5348     1.6947     1.0000     4.800
    100    -0.0018     0.9994     0.1579     10.264    179.000 259617.000     10.000    41.2634     0.0000   -38.3756   -14.0270    -1.8149     2.8855    20.6309    41.2644     0.6490    14.6339    14.6332     0.0007     1.5353     1.6956     1.0000     4.800
    101     0.0000     1.0000     0.1600     10.239    180.000 259617.000     10.000    41.2634     0.0000   -38.2234   -14.0438    -1.8958     2.8932    20.6309    41.2644     0.6497    14.6339    14.6332     0.0007     1.5355     1.6996     1.0000     4.800
    102    -0.0019     0.9994     0.1618     10.233    141.000 259617.000     10.000    41.2634     0.0000   -38.0714   -14.0438    -1.8101     2.8828    20.6309    41.2644     0.6497    14.6339    14.6332     0.0007     1.5351     1.6923     1.0000     4.800
    103    -0.0002     1.0000     0.1640     10.212    140.000 259617.000     10.000    41.2634     0.0000   -37.9196   -14.0625    -1.8918     2.8849    20.6309    41.2644     0.6506    14.6339    14.6332     0.0007     1.5349     1.6981     1.0000     4.800
    104    -0.0021     0.9994     0.1658     10.242    155.000 259617.000     10.000    41.2634     0.0000   -37.7681   -14.0625    -1.7996     2.8847    20.6309    41.2644     0.6506    14.6339    14.6332     0.0007     1.5356     1.6947     1.0000     4.800
    105    -0.0001     1.0000     0.1680     10.246    159.000 259617.000     10.000    41.2634     0.0000   -37.6168   -14.0802    -1.8950     2.8870    20.6309    41.2644     0.6514    14.6339    14.6332     0.0007     1.5344     1.6961     1.0000     4.800
    106    -0.0001     0.9993     0.1698     10.261    171.000 259617.000     10.000    41.2634     0.0000   -37.4658   -14.0802    -1.8894     2.8957    20.6309    41.2644     0.6514    14.6339    14.6332     0.0007     1.5353     1.6978     1.0000     4.800
    107     0.0003     1.0000     0.1720     10.272    148.000 259617.000     10.000    41.2634     0.0000   -37.3151   -14.0999    -1.9090     2.8939    20.6309    41.2644     0.6523    14.6339    14.6332     0.0007     1.5359     1.6968     1.0000     4.800
    108    -0.0001     0.9994     0.1738     10.257    162.000 259617.000     10.000    41.2634     0.0000   -37.1646   -14.0999    -1.8925     2.8929    20.6309    41.2644     0.6523    14.6339    14.6332     0.0007     1.5348     1.6938     1.0000     4.800
    109    -0.0016     1.0000     0.1760     10.238    178.000 259617.000     10.000    41.2634     0.0000   -37.0144   -14.1186    -1.8232     2.8894    20.6309    41.2644     0.6532    14.6339    14.6332     0.0007     1.5353     1.6919     1.0000     4.800
    110    -0.0001     0.9993     0.1778     10.273    164.000 259617.000     10.000    41.2634     0.0000   -36.8644   -14.1186    -1.8938     2.8847    20.6309    41.2644     0.6532    14.6339    14.6332     0.0007     1.5348     1.6960     1.0000     4.800
    111     0.0001     0.9999     0.1800     10.248    170.000 259617.000     10.000    41.2634     0.0000   -36.7148   -14.1373    -1.8997     2.8908    20.6309    41.2644     0.6540    14.6339    14.6332     0.0007     1.5354     1.6948     1.0000     4.800
    112    -0.0000     0.9999     0.1820     10.232    176.000 259617.000     10.000    41.2634     0.0000   -36.5653   -14.1471    -1.8892     2.8998    20.6309    41.2644     0.6545    14.6339    14.6332     0.0007     1.5351     1.6991     1.0000     4.800
    113    -0.0026     1.0000     0.1840     10.286    151.000 259617.000     10.000    41.2634     0.0000   -36.4162   -14.1579    -1.7774     2.8893    20.6309    41.2644     0.6550    14.6339    14.6332     0.0007     1.5348     1.6895     1.0000     4.800
    114     0.0001     0.9994     0.1858     10.245    180.000 259617.000     10.000    41.2634     0.0000   -36.2673   -14.1589    -1.8988     2.8958    20.6309    41.2644     0.6550    14.6339    14.6332     0.0007     1.5350     1.6936     1.0000     4.800
    115    -0.0024     1.0001     0.1880     10.232    159.000 259617.000     10.000    41.2634     0.0000   -36.1187   -14.1806    -1.7895     2.8870    20.6309    41.2644     0.6560    14.6339    14.6332     0.0007     1.5352     1.6938     1.0000     4.800
    116     0.0000     0.9994     0.1898     10.270    154.000 259617.000     10.000    41.2634     0.0000   -35.9704   -14.1806    -1.8960     2.8923    20.6309    41.2644     0.6560    14.6339    14.6332     0.0007     1.5354     1.6954     1.0000     4.800
    117    -0.0011     1.0000     0.1920     10.261    171.000 259617.000     10.000    41.2634     0.0000   -35.8223   -14.1993    -1.8454     2.8904    20.6309    41.2644     0.6569    14.6339    14.6332     0.0007     1.5349     1.6928     1.0000     4.800
    118    -0.0001     0.9999     0.1940     10.202    199.000 259617.000     10.000    41.2634     0.0000   -35.6745   -14.2081    -1.8901     2.8949    20.6309    41.2644     0.6573    14.6339    14.6332     0.0007     1.5352     1.6966     1.0000     4.800
    119    -0.0001     1.0001     0.1960     10.243    211.000 259617.000     10.000    41.2634     0.0000   -35.5270   -14.2219    -1.8902     2.8921    20.6309    41.2644     0.6579    14.6339    14.6332     0.0007     1.5352     1.6917     1.0000     4.800
    120    -0.0008     0.9993     0.1978     10.250    205.000 259617.000     10.000    41.2634     0.0000   -35.3798   -14.2219    -1.8624     2.8849    20.6309    41.2644     0.6579    14.6339    14.6332     0.0007     1.5361     1.6960     1.0000     4.800
    121    -0.0000     1.0002     0.2001     10.278    175.000 259617.000     10.000    41.2634     0.0000   -35.2329   -14.2455    -1.8937     2.8936    20.6309    41.2644     0.6590    14.6339    14.6332     0.0007     1.5346     1.6949     1.0000     4.800
    122    -0.0004     0.9995     0.2018     10.281    147.000 259617.000     10.000    41.2634     0.0000   -35.0862   -14.2455    -1.8753     2.8935    20.6309    41.2644     0.6590    14.6339    14.6332     0.0007     1.5352     1.6977     1.0000     4.800
    123    -0.0001     0.9999     0.2040     10.251    176.000 259617.000     10.000    41.2634     0.0000   -34.9398   -14.2633    -1.8925     2.8929    20.6309    41.2644     0.6598    14.6339    14.6332     0.0007     1.5352     1.6951     1.0000     4.800
    124     0.0006     0.9999     0.2060     10.225    189.000 259617.000     10.000    41.2634     0.0000   -34.7938   -14.2741    -1.9203     2.8947    20.6309    41.2644     0.6603    14.6339    14.6332     0.0007     1.5359     1.6972     1.0000     4.800
    125    -0.0000     1.0000     0.2080     10.275    157.000 259617.000     10.000    41.2634     0.0000   -34.6480   -14.2879    -1.8947     2.8902    20.6309    41.2644     0.6610    14.6339    14.6332     0.0007     1.5356     1.7008     1.0000     4.800
    126    -0.0030     0.9999     0.2100     10.279    168.000 259617.000     10.000    41.2634     0.0000   -34.5025   -14.2977    -1.7621     2.8874    20.6309    41.2644     0.6614    14.6339    14.6332     0.0007     1.5356     1.6996     1.0000     4.800
    127    -0.0001     1.0000     0.2120     10.284    181.000 259617.000     10.000    41.2634     0.0000   -34.3572   -14.3095    -1.8926     2.8876    20.6309    41.2644     0.6620    14.6339    14.6332     0.0007     1.5347     1.6886     1.0000     4.800
    128    -0.0011     1.0000     0.2140     10.250    196.000 259617.000     10.000    41.2634     0.0000   -34.2123   -14.3223    -1.8468     2.8954    20.6309    41.2644     0.6626    14.6339    14.6332     0.0007     1.5351     1.6953     1.0000     4.800
    129    -0.0001     1.0000     0.2160     10.247    188.000 259617.000     10.000    41.2634     0.0000   -34.0677   -14.3331    -1.8935     2.8880    20.6309    41.2644     0.6631    14.6339    14.6332     0.0007     1.5359     1.7027     1.0000     4.800
    130    -0.0002     1.0000     0.2180     10.259    198.000 259617.000     10.000    41.2634     0.0000   -33.9234   -14.3450    -1.8877     2.8920    20.6309    41.2644     0.6636    14.6339    14.6332     0.0007     1.5352     1.6916     1.0000     4.800
    131    -0.0017     1.0000     0.2200     10.232    188.000 259617.000     10.000    41.2634     0.0000   -33.7793   -14.3577    -1.8193     2.8905    20.6309    41.2644     0.6642    14.6339    14.6332     0.0007     1.5363     1.6972     1.0000     4.800
    132    -0.0000     1.0000     0.2220     10.269    197.000 259617.000     10.000    41.2634     0.0000   -33.6356   -14.3686    -1.8923     2.8959    20.6309    41.2644     0.6647    14.6339    14.6332     0.0007     1.5348     1.6902     1.0000     4.800
    133    -0.0007     1.0000     0.2240     10.257    188.000 259617.000     10.000    41.2634     0.0000   -33.4921   -14.3814    -1.8683     2.8857    20.6309    41.2644     0.6653    14.6339    14.6332     0.0007     1.5348     1.6941     1.0000     4.800
    134    -0.0011     0.9999     0.2260     10.195    211.000 259617.000     10.000    41.2634     0.0000   -33.3490   -14.3922    -1.8490     2.8886    20.6309    41.2644     0.6658    14.6339    14.6332     0.0007     1.5346     1.6895     1.0000     4.800
    135    -0.0000     1.0001     0.2280     10.243    231.000 259617.000     10.000    41.2634     0.0000   -33.2062   -14.4070    -1.8965     2.8861    20.6309    41.2644     0.6665    14.6339    14.6332     0.0007     1.5348     1.6961     1.0000     4.800
    136    -0.0002     0.9999     0.2300     10.243    286.000 259617.000     10.000    41.2634     0.0000   -33.0636   -14.4168    -1.8864     2.8902    20.6309    41.2644     0.6669    14.6339    14.6332     0.0007     1.5356     1.6954     1.0000     4.800
    137     0.0005     1.0001     0.2320     10.279    434.000 259617.000     10.000    41.2634     0.0000   -32.9214   -14.4316    -1.9178     2.8906    20.6309    41.2644     0.6676    14.6339    14.6332     0.0007     1.5349     1.6919     1.0000     4.800
    138     0.0003     1.0000     0.2340     10.292    420.000 259617.000     10.000    41.2634     0.0000   -32.7795   -14.4424    -1.9034     2.8991    20.6309    41.2644     0.6681    14.6339    14.6332     0.0007     1.5358     1.6971     1.0000     4.800
    139    -0.0000     1.0000     0.2360     10.242    437.000 259617.000     10.000    41.2634     0.0000   -32.6378   -14.4562    -1.8925     2.8964    20.6309    41.2644     0.6687    14.6339    14.6332     0.0007     1.5355     1.6993     1.0000     4.800
    140    -0.0002     1.0000     0.2380     10.257    568.000 259617.000     10.000    41.2634     0.0000   -32.4965   -14.4680    -1.8905     2.8870    20.6309    41.2644     0.6693    14.6339    14.6332     0.0007     1.5358     1.6987     1.0000     4.800
    141    -0.0011     1.0000     0.2400     10.280   1441.000 259617.000     10.000    41.2634     0.0000   -32.3555   -14.4818    -1.8502     2.8832    20.6309    41.2644     0.6699    14.6339    14.6332     0.0007     1.5370     1.6952     1.0000     4.800
    142    -0.0002     0.9999     0.2420     10.234   4136.000 259617.000     10.000    41.2634     0.0000   -32.2148   -14.4936    -1.8882     2.8911    20.6309    41.2644     0.6704    14.6339    14.6332     0.0007     1.5353     1.6984     1.0000     4.800
    143    -0.0018     1.0000     0.2440     10.279  10045.000 259617.000     10.000    41.2634     0.0000   -32.0744   -14.5074    -1.8177     2.8874    20.6309    41.2644     0.6711    14.6339    14.6332     0.0007     1.5352     1.6965     1.0000     4.800
    144    -0.0001     1.0000     0.2460     10.250  23368.000 259617.000     10.000    41.2634     0.0000   -31.9344   -14.5211    -1.8891     2.8917    20.6309    41.2644     0.6717    14.6339    14.6332     0.0007     1.5351     1.6986     1.0000     4.800
    145    -0.0009     1.0000     0.2480     10.241  38244.000 259617.000     10.000    41.2634     0.0000   -31.7946   -14.5339    -1.8597     2.8879    20.6309    41.2644     0.6723    14.6339    14.6332     0.0007     1.5353     1.6953     1.0000     4.800
    146    -0.0010     1.0000     0.2500     10.274  34559.000 259617.000     10.000    41.2634     0.0000   -31.6551   -14.5477    -1.8550     2.8896    20.6309    41.2644     0.6729    14.6339    14.6332     0.0007     1.5349     1.6927     1.0000     4.800
    147    -0.0001     1.0000     0.2520     10.275  21280.000 259617.000     10.000    41.2634     0.0000   -31.5160   -14.5605    -1.8928     2.8909    20.6309    41.2644     0.6735    14.6339    14.6332     0.0007     1.5349     1.6964     1.0000     4.800
    148     0.0001     1.0000     0.2540     10.295  11200.000 259617.000     10.000    41.2634     0.0000   -31.3772   -14.5743    -1.8996     2.8900    20.6309    41.2644     0.6742    14.6339    14.6332     0.0007     1.5347     1.6992     1.0000     4.800
    149    -0.0000     1.0000     0.2560     10.264   7239.000 259617.000     10.000    41.2634     0.0000   -31.2387   -14.5881    -1.8980     2.8845    20.6309    41.2644     0.6748    14.6339    14.6332     0.0007     1.5348     1.6926     1.0000     4.800
    150    -0.0000     1.0000     0.2580     10.282   5539.000 259617.000     10.000    41.2634     0.0000   -31.1005   -14.6018    -1.8918     2.8967    20.6309    41.2644     0.6754    14.6339    14.6332     0.0007     1.5354     1.6964     1.0000     4.800
    151    -0.0014     1.0000     0.2600     10.225   2416.000 259617.000     10.000    41.2634     0.0000   -30.9627   -14.6156    -1.8350     2.8889    20.6309    41.2644     0.6761    14.6339    14.6332     0.0007     1.5354     1.6905     1.0000     4.800
    152     0.0000     0.9999     0.2620     10.275    854.000 259617.000     10.000    41.2634     0.0000   -30.8251   -14.6284    -1.8983     2.8897    20.6309    41.2644     0.6766    14.6339    14.6332     0.0007     1.5361     1.6964     1.0000     4.800
    153    -0.0001     1.0001     0.2640     10.275    442.000 259617.000     10.000    41.2634     0.0000   -30.6879   -14.6451    -1.8944     2.8856    20.6309    41.2644     0.6774    14.6339    14.6332     0.0007     1.5347     1.6933     1.0000     4.800
    154    -0.0000     1.0000     0.2660     10.294    436.000 259617.000     10.000    41.2634     0.0000   -30.5510   -14.6570    -1.8951     2.8891    20.6309    41.2644     0.6780    14.6339    14.6332     0.0007     1.5347     1.6965     1.0000     4.800
    155    -0.0011     1.0001     0.2680     10.236    444.000 259617.000     10.000    41.2634     0.0000   -30.4144   -14.6727    -1.8518     2.8825    20.6309    41.2644     0.6787    14.6339    14.6332     0.0007     1.5342     1.6864     1.0000     4.800
    156    -0.0000     0.9999     0.2700     10.224    489.000 259617.000     10.000    41.2634     0.0000   -30.2782   -14.6845    -1.8977     2.8855    20.6309    41.2644     0.6792    14.6339    14.6332     0.0007     1.5354     1.6982     1.0000     4.800
    157     0.0002     1.0001     0.2720     10.244    443.000 259617.000     10.000    41.2634     0.0000   -30.1422   -14.7022    -1.9013     2.8945    20.6309    41.2644     0.6800    14.6339    14.6332     0.0007     1.5352     1.6945     1.0000     4.800
    158    -0.0029     0.9999     0.2740     10.271    392.000 259617.000     10.000    41.2634     0.0000   -30.0066   -14.7140    -1.7767     2.8862    20.6309    41.2644     0.6806    14.6339    14.6332     0.0007     1.5360     1.6933     1.0000     4.800
    159    -0.0001     1.0001     0.2760     10.259    352.000 259617.000     10.000    41.2634     0.0000   -29.8714   -14.7308    -1.8922     2.8886    20.6309    41.2644     0.6814    14.6339    14.6332     0.0007     1.5347     1.6967     1.0000     4.800
    160    -0.0005     1.0000     0.2780     10.219    301.000 259617.000     10.000    41.2634     0.0000   -29.7364   -14.7436    -1.8735     2.8960    20.6309    41.2644     0.6819    14.6339    14.6332     0.0007     1.5352     1.6943     1.0000     4.800
    161     0.0001     1.0000     0.2800     10.244    273.000 259617.000     10.000    41.2634     0.0000   -29.6018   -14.7593    -1.8987     2.8900    20.6309    41.2644     0.6827    14.6339    14.6332     0.0007     1.5360     1.6968     1.0000     4.800
    162    -0.0007     1.0000     0.2820     10.214    239.000 259617.000     10.000    41.2634     0.0000   -29.4675   -14.7731    -1.8642     2.8919    20.6309    41.2644     0.6833    14.6339    14.6332     0.0007     1.5360     1.7011     1.0000     4.800
    163    -0.0012     1.0000     0.2840     10.245    183.000 259617.000     10.000    41.2634     0.0000   -29.3335   -14.7889    -1.8436     2.8953    20.6309    41.2644     0.6840    14.6339    14.6332     0.0007     1.5360     1.6951     1.0000     4.800
    164    -0.0000     1.0000     0.2860     10.238    165.000 259617.000     10.000    41.2634     0.0000   -29.1999   -14.8036    -1.8930     2.8973    20.6309    41.2644     0.6847    14.6339    14.6332     0.0007     1.5343     1.6949     1.0000     4.800
    165    -0.0014     1.0000     0.2880     10.254    216.000 259617.000     10.000    41.2634     0.0000   -29.0666   -14.8184    -1.8382     2.8924    20.6309    41.2644     0.6854    14.6339    14.6332     0.0007     1.5347     1.6853     1.0000     4.800
    166    -0.0000     1.0000     0.2900     10.261    183.000 259617.000     10.000    41.2634     0.0000   -28.9336   -14.8341    -1.8924     2.8959    20.6309    41.2644     0.6861    14.6339    14.6332     0.0007     1.5345     1.6932     1.0000     4.800
    167    -0.0028     1.0000     0.2920     10.216    193.000 259617.000     10.000    41.2634     0.0000   -28.8010   -14.8489    -1.7819     2.8915    20.6309    41.2644     0.6868    14.6339    14.6332     0.0007     1.5352     1.6933     1.0000     4.800
    168     0.0001     1.0000     0.2940     10.263    186.000 259617.000     10.000    41.2634     0.0000   -28.6687   -14.8646    -1.8951     2.9048    20.6309    41.2644     0.6875    14.6339    14.6332     0.0007     1.5352     1.6992     1.0000     4.800
    169    -0.0005     1.0000     0.2960     10.254    203.000 259617.000     10.000    41.2634     0.0000   -28.5367   -14.8804    -1.8710     2.8976    20.6309    41.2644     0.6882    14.6339    14.6332     0.0007     1.5353     1.6914     1.0000     4.800
    170     0.0002     1.0000     0.2980     10.275    183.000 259617.000     10.000    41.2634     0.0000   -28.4051   -14.8951    -1.8989     2.9026    20.6309    41.2644     0.6889    14.6339    14.6332     0.0007     1.5350     1.6970     1.0000     4.800
    171    -0.0000     1.0001     0.3000     10.278    163.000 259617.000     10.000    41.2634     0.0000   -28.2738   -14.9129    -1.8944     2.8938    20.6309    41.2644     0.6897    14.6339    14.6332     0.0007     1.5348     1.6965     1.0000     4.800
    172    -0.0009     1.0000     0.3020     10.237    167.000 259617.000     10.000    41.2634     0.0000   -28.1428   -14.9266    -1.8559     2.8943    20.6309    41.2644     0.6904    14.6339    14.6332     0.0007     1.5351     1.6915     1.0000     4.800
    173    -0.0002     1.0000     0.3040     10.286    177.000 259617.000     10.000    41.2634     0.0000   -28.0122   -14.9434    -1.8873     2.8931    20.6309    41.2644     0.6911    14.6339    14.6332     0.0007     1.5358     1.6990     1.0000     4.800
    174    -0.0016     0.9999     0.3060     10.240    186.000 259617.000     10.000    41.2634     0.0000   -27.8819   -14.9581    -1.8290     2.8947    20.6309    41.2644     0.6918    14.6339    14.6332     0.0007     1.5350     1.6938     1.0000     4.800
    175    -0.0005     1.0001     0.3080     10.237    183.000 259617.000     10.000    41.2634     0.0000   -27.7519   -14.9768    -1.8737     2.8934    20.6309    41.2644     0.6927    14.6339    14.6332     0.0007     1.5351     1.6916     1.0000     4.800
    176     0.0000     0.9999     0.3099     10.255    182.000 259617.000     10.000    41.2634     0.0000   -27.6223   -14.9887    -1.8951     2.8955    20.6309    41.2644     0.6932    14.6339    14.6332     0.0007     1.5353     1.7006     1.0000     4.800
    177     0.0009     1.0001     0.3121     10.237    171.000 259617.000     10.000    41.2634     0.0000   -27.4930   -15.0093    -1.9306     2.8951    20.6309    41.2644     0.6942    14.6339    14.6332     0.0007     1.5352     1.6922     1.0000     4.800
    178     0.0001     0.9999     0.3140     10.241    197.000 259617.000     10.000    41.2634     0.0000   -27.3641   -15.0221    -1.8994     2.8928    20.6309    41.2644     0.6948    14.6339    14.6332     0.0007     1.5364     1.6971     1.0000     4.800
    179     0.0011     1.0001     0.3161     10.293    169.000 259617.000     10.000    41.2634     0.0000   -27.2355   -15.0418    -1.9381     2.8952    20.6309    41.2644     0.6957    14.6339    14.6332     0.0007     1.5351     1.6979     1.0000     4.800
    180    -0.0001     0.9998     0.3179     10.234    166.000 259617.000     10.000    41.2634     0.0000   -27.1072   -15.0536    -1.8941     2.8864    20.6309    41.2644     0.6962    14.6339    14.6332     0.0007     1.5348     1.6918     1.0000     4.800
    181    -0.0032     1.0000     0.3200     10.256    200.000 259617.000     10.000    41.2634     0.0000   -26.9793   -15.0733    -1.7697     2.8854    20.6309    41.2644     0.6971    14.6339    14.6332     0.0007     1.5355     1.6936     1.0000     4.800
    182    -0.0001     0.9999     0.3220     10.277    181.000 259617.000     10.000    41.2634     0.0000   -26.8517   -15.0881    -1.8895     2.8951    20.6309    41.2644     0.6978    14.6339    14.6332     0.0007     1.5350     1.6977     1.0000     4.800
    183     0.0000     1.0000     0.3240     10.217    201.000 259617.000     10.000    41.2634     0.0000   -26.7244   -15.1068    -1.8958     2.8952    20.6309    41.2644     0.6986    14.6339    14.6332     0.0007     1.5352     1.6994     1.0000     4.800
    184    -0.0029     1.0000     0.3260     10.219    175.000 259617.000     10.000    41.2634     0.0000   -26.5975   -15.1225    -1.7807     2.8932    20.6309    41.2644     0.6994    14.6339    14.6332     0.0007     1.5355     1.6998     1.0000     4.800
    185    -0.0001     1.0000     0.3280     10.213    184.000 259617.000     10.000    41.2634     0.0000   -26.4710   -15.1402    -1.8924     2.8920    20.6309    41.2644     0.7002    14.6339    14.6332     0.0007     1.5356     1.6973     1.0000     4.800
    186    -0.0032     1.0000     0.3300     10.231    177.000 259617.000     10.000    41.2634     0.0000   -26.3448   -15.1570    -1.7697     2.8917    20.6309    41.2644     0.7010    14.6339    14.6332     0.0007     1.5354     1.7019     1.0000     4.800
    187    -0.0009     0.9999     0.3320     10.242    183.000 259617.000     10.000    41.2634     0.0000   -26.2189   -15.1727    -1.8619     2.8902    20.6309    41.2644     0.7017    14.6339    14.6332     0.0007     1.5367     1.6974     1.0000     4.800
    188    -0.0000     1.0002     0.3341     10.279    182.000 259617.000     10.000    41.2634     0.0000   -26.0933   -15.1934    -1.8930     2.8923    20.6309    41.2644     0.7026    14.6339    14.6332     0.0007     1.5353     1.6930     1.0000     4.800
    189    -0.0028     0.9999     0.3360     10.214    189.000 259617.000     10.000    41.2634     0.0000   -25.9681   -15.2072    -1.7863     2.8892    20.6309    41.2644     0.7033    14.6339    14.6332     0.0007     1.5359     1.6889     1.0000     4.800
    190     0.0000     1.0000     0.3380     10.244    176.000 259617.000     10.000    41.2634     0.0000   -25.8433   -15.2259    -1.8936     2.8971    20.6309    41.2644     0.7041    14.6339    14.6332     0.0007     1.5354     1.6947     1.0000     4.800
    191    -0.0037     1.0000     0.3400     10.254    195.000 259617.000     10.000    41.2634     0.0000   -25.7188   -15.2426    -1.7478     2.8918    20.6309    41.2644     0.7049    14.6339    14.6332     0.0007     1.5358     1.6907     1.0000     4.800
    192    -0.0015     1.0000     0.3420     10.231    180.000 259617.000     10.000    41.2634     0.0000   -25.5946   -15.2603    -1.8368     2.8905    20.6309    41.2644     0.7057    14.6339    14.6332     0.0007     1.5358     1.6954     1.0000     4.800
    193    -0.0000     1.0000     0.3440     10.259    184.000 259617.000     10.000    41.2634     0.0000   -25.4708   -15.2780    -1.8961     2.8879    20.6309    41.2644     0.7065    14.6339    14.6332     0.0007     1.5354     1.6970     1.0000     4.800
    194    -0.0037     1.0000     0.3460     10.271    182.000 259617.000     10.000    41.2634     0.0000   -25.3473   -15.2948    -1.7530     2.8856    20.6309    41.2644     0.7073    14.6339    14.6332     0.0007     1.5354     1.6988     1.0000     4.800
    195     0.0000     1.0001     0.3480     10.299    167.000 259617.000     10.000    41.2634     0.0000   -25.2242   -15.3144    -1.8944     2.8939    20.6309    41.2644     0.7082    14.6339    14.6332     0.0007     1.5358     1.6999     1.0000     4.800
    196    -0.0004     1.0000     0.3500     10.268    201.000 259617.000     10.000    41.2634     0.0000   -25.1014   -15.3302    -1.8781     2.8916    20.6309    41.2644     0.7089    14.6339    14.6332     0.0007     1.5363     1.6914     1.0000     4.800
# Sum of Counts = 207112
# Center of Mass = 0.220349+/-0.000707
# Full Width Half-Maximum = 0.158709+/-0.000502
# 8:35:34 AM  3/13/2016   scan completed.
