# scan = 231
# date = 3/13/2016
# time = 1:19:55 AM
# proposal = IPTS-15083.1
# experiment = Evolution of the magnetic structure with applied field in multiferroic (ND4)2[FeCl5(D2O)]
# experiment_number = 718
# command = scan h 0 k 1 l -0.04 0.35 0.002 preset mcu 10
# builtin_command = scan h 0 k 1 l -0.04 0.35 0.002 preset mcu 10
# users = Wei Tian, Jaime Fernandez-Baca, Huibo Cao
# local_contact = Wei Tian
# scan_title = scan (0 1 L), 1.5K, 2.8 T
# monochromator = PG002
# analyzer = Pg002
# sense = +-+
# collimation = 40-40-40-60
# samplename = (ND4)2[FeCl5(D2O)]
# sampletype = crystal
# samplemosaic = 30.000000
# latticeconstants = 13.659912,9.922999,6.896657,90.000000,90.000000,90.000000
# ubmatrix = -0.002420,0.072257,0.100960,-0.003695,0.069997,-0.104056,-0.073074,-0.005932,0.001919
# mode = 0
# plane_normal = 0.033051,0.050478,0.998178
# ubconf = UB11Mar2016_12747PM.ini
# preset_type = normal 
# preset_channel = mcu
# preset_value = 10.000000
# def_x = l
# def_y = detector
# col_headers = 
#   Pt.          h          k          l       time   detector    monitor        mcu         m2      mag_e         s1         s2        sgl        sgu         a1         a2          q         ei         ef          e    coldtip    tsample       temp persistent_field
      1    -0.0007     1.0003    -0.0400     10.295    151.000 259617.000     10.000    41.2634     0.0000   -54.3131   -13.7111    -1.8488     2.8949    20.6309    41.2644     0.6344    14.6339    14.6332     0.0007     1.4615     1.5516     1.0000     2.800
      2     0.0000     1.0007    -0.0380     10.229    141.000 259617.000     10.000    41.2634     0.0000   -54.1476   -13.7140    -1.8901     2.8989    20.6309    41.2644     0.6346    14.6339    14.6332     0.0007     1.4621     1.5486     1.0000     2.800
      3    -0.0007     1.0007    -0.0360     10.216    166.000 259617.000     10.000    41.2634     0.0000   -53.9822   -13.7131    -1.8554     2.8910    20.6309    41.2644     0.6345    14.6339    14.6332     0.0007     1.4618     1.5444     1.0000     2.800
      4     0.0000     1.0005    -0.0340     10.265    144.000 259617.000     10.000    41.2634     0.0000   -53.8167   -13.7072    -1.8970     2.8933    20.6309    41.2644     0.6342    14.6339    14.6332     0.0007     1.4618     1.5503     1.0000     2.800
      5     0.0002     1.0004    -0.0320     10.245    165.000 259617.000     10.000    41.2634     0.0000   -53.6513   -13.7042    -1.9144     2.8878    20.6309    41.2644     0.6341    14.6339    14.6332     0.0007     1.4615     1.5466     1.0000     2.800
      6    -0.0001     1.0004    -0.0300     10.205    151.000 259617.000     10.000    41.2634     0.0000   -53.4859   -13.7032    -1.8981     2.8830    20.6309    41.2644     0.6341    14.6339    14.6332     0.0007     1.4619     1.5455     1.0000     2.800
      7     0.0001     1.0003    -0.0280     10.235    135.000 259617.000     10.000    41.2634     0.0000   -53.3204   -13.7003    -1.8912     2.9013    20.6309    41.2644     0.6339    14.6339    14.6332     0.0007     1.4626     1.5514     1.0000     2.800
      8    -0.0006     1.0005    -0.0260     10.233    158.000 259617.000     10.000    41.2634     0.0000   -53.1551   -13.7013    -1.8587     2.8955    20.6309    41.2644     0.6340    14.6339    14.6332     0.0007     1.4623     1.5460     1.0000     2.800
      9     0.0000     1.0003    -0.0240     10.316    152.000 259617.000     10.000    41.2634     0.0000   -52.9897   -13.6973    -1.8955     2.8950    20.6309    41.2644     0.6338    14.6339    14.6332     0.0007     1.4623     1.5536     1.0000     2.800
     10     0.0004     1.0004    -0.0220     10.232    183.000 259617.000     10.000    41.2634     0.0000   -52.8243   -13.6973    -1.9215     2.8924    20.6309    41.2644     0.6338    14.6339    14.6332     0.0007     1.4621     1.5506     1.0000     2.800
     11    -0.0000     1.0003    -0.0200     10.222    193.000 259617.000     10.000    41.2634     0.0000   -52.6590   -13.6944    -1.8941     2.8938    20.6309    41.2644     0.6337    14.6339    14.6332     0.0007     1.4621     1.5504     1.0000     2.800
     12    -0.0002     1.0005    -0.0180     10.283    193.000 259617.000     10.000    41.2634     0.0000   -52.4937   -13.6953    -1.8903     2.8869    20.6309    41.2644     0.6337    14.6339    14.6332     0.0007     1.4628     1.5503     1.0000     2.800
     13    -0.0001     1.0003    -0.0160     10.269    193.000 259617.000     10.000    41.2634     0.0000   -52.3285   -13.6924    -1.8915     2.8904    20.6309    41.2644     0.6336    14.6339    14.6332     0.0007     1.4617     1.5485     1.0000     2.800
     14    -0.0002     1.0003    -0.0140     10.258    209.000 259617.000     10.000    41.2634     0.0000   -52.1632   -13.6914    -1.8888     2.8862    20.6309    41.2644     0.6335    14.6339    14.6332     0.0007     1.4619     1.5515     1.0000     2.800
     15     0.0002     1.0004    -0.0120     10.247    212.000 259617.000     10.000    41.2634     0.0000   -51.9980   -13.6924    -1.9071     2.8941    20.6309    41.2644     0.6336    14.6339    14.6332     0.0007     1.4632     1.5495     1.0000     2.800
     16    -0.0003     1.0005    -0.0100     10.260    245.000 259617.000     10.000    41.2634     0.0000   -51.8329   -13.6924    -1.8839     2.8900    20.6309    41.2644     0.6336    14.6339    14.6332     0.0007     1.4634     1.5508     1.0000     2.800
     17     0.0003     1.0005    -0.0080     10.264    295.000 259617.000     10.000    41.2634     0.0000   -51.6678   -13.6924    -1.9140     2.8925    20.6309    41.2644     0.6336    14.6339    14.6332     0.0007     1.4639     1.5530     1.0000     2.800
     18    -0.0001     1.0001    -0.0060     10.252    560.000 259617.000     10.000    41.2634     0.0000   -51.5027   -13.6865    -1.8958     2.8888    20.6309    41.2644     0.6333    14.6339    14.6332     0.0007     1.4614     1.5493     1.0000     2.800
     19     0.0004     1.0005    -0.0040     10.225   1012.000 259617.000     10.000    41.2634     0.0000   -51.3377   -13.6914    -1.9271     2.8862    20.6309    41.2644     0.6335    14.6339    14.6332     0.0007     1.4635     1.5466     1.0000     2.800
     20    -0.0000     1.0002    -0.0020     10.260   1726.000 259617.000     10.000    41.2634     0.0000   -51.1728   -13.6875    -1.8977     2.8911    20.6309    41.2644     0.6333    14.6339    14.6332     0.0007     1.4625     1.5518     1.0000     2.800
     21    -0.0001     1.0004     0.0000     10.256   2226.000 259617.000     10.000    41.2634     0.0000   -51.0079   -13.6904    -1.9000     2.8854    20.6309    41.2644     0.6335    14.6339    14.6332     0.0007     1.4639     1.5526     1.0000     2.800
     22    -0.0006     1.0005     0.0020     10.215   1814.000 259617.000     10.000    41.2634     0.0000   -50.8430   -13.6914    -1.8658     2.8896    20.6309    41.2644     0.6335    14.6339    14.6332     0.0007     1.4643     1.5522     1.0000     2.800
     23    -0.0002     1.0003     0.0040     10.264   1152.000 259617.000     10.000    41.2634     0.0000   -50.6782   -13.6885    -1.8944     2.8842    20.6309    41.2644     0.6334    14.6339    14.6332     0.0007     1.4640     1.5530     1.0000     2.800
     24    -0.0005     1.0004     0.0060     10.268    716.000 259617.000     10.000    41.2634     0.0000   -50.5135   -13.6904    -1.8823     2.8788    20.6309    41.2644     0.6335    14.6339    14.6332     0.0007     1.4629     1.5509     1.0000     2.800
     25    -0.0002     1.0002     0.0080     10.242    460.000 259617.000     10.000    41.2634     0.0000   -50.3488   -13.6875    -1.8953     2.8817    20.6309    41.2644     0.6333    14.6339    14.6332     0.0007     1.4633     1.5494     1.0000     2.800
     26    -0.0000     1.0003     0.0100     10.207    349.000 259617.000     10.000    41.2634     0.0000   -50.1842   -13.6904    -1.9036     2.8826    20.6309    41.2644     0.6335    14.6339    14.6332     0.0007     1.4638     1.5508     1.0000     2.800
     27    -0.0001     1.0003     0.0120     10.226    272.000 259617.000     10.000    41.2634     0.0000   -50.0197   -13.6904    -1.8899     2.8909    20.6309    41.2644     0.6335    14.6339    14.6332     0.0007     1.4627     1.5541     1.0000     2.800
     28     0.0002     1.0002     0.0140     10.270    203.000 259617.000     10.000    41.2634     0.0000   -49.8553   -13.6894    -1.9071     2.8934    20.6309    41.2644     0.6334    14.6339    14.6332     0.0007     1.4634     1.5527     1.0000     2.800
     29    -0.0005     1.0004     0.0160     10.263    193.000 259617.000     10.000    41.2634     0.0000   -49.6909   -13.6934    -1.8672     2.8918    20.6309    41.2644     0.6336    14.6339    14.6332     0.0007     1.4633     1.5517     1.0000     2.800
     30     0.0000     1.0005     0.0180     10.233    212.000 259617.000     10.000    41.2634     0.0000   -49.5266   -13.6953    -1.8989     2.8920    20.6309    41.2644     0.6337    14.6339    14.6332     0.0007     1.4626     1.5522     1.0000     2.800
     31     0.0001     1.0004     0.0200     10.238    186.000 259617.000     10.000    41.2634     0.0000   -49.3624   -13.6953    -1.9028     2.8895    20.6309    41.2644     0.6337    14.6339    14.6332     0.0007     1.4634     1.5504     1.0000     2.800
     32     0.0006     1.0005     0.0221     10.291    173.000 259617.000     10.000    41.2634     0.0000   -49.1983   -13.6983    -1.9297     2.8907    20.6309    41.2644     0.6338    14.6339    14.6332     0.0007     1.4643     1.5550     1.0000     2.800
     33     0.0002     1.0003     0.0240     10.260    159.000 259617.000     10.000    41.2634     0.0000   -49.0342   -13.6963    -1.9041     2.8936    20.6309    41.2644     0.6337    14.6339    14.6332     0.0007     1.4628     1.5503     1.0000     2.800
     34    -0.0010     1.0003     0.0260     10.249    148.000 259617.000     10.000    41.2634     0.0000   -48.8703   -13.6983    -1.8427     2.8906    20.6309    41.2644     0.6338    14.6339    14.6332     0.0007     1.4643     1.5521     1.0000     2.800
     35    -0.0001     1.0003     0.0280     10.256    161.000 259617.000     10.000    41.2634     0.0000   -48.7064   -13.6993    -1.8904     2.8913    20.6309    41.2644     0.6339    14.6339    14.6332     0.0007     1.4627     1.5532     1.0000     2.800
     36     0.0009     1.0004     0.0300     10.248    175.000 259617.000     10.000    41.2634     0.0000   -48.5427   -13.7022    -1.9484     2.8895    20.6309    41.2644     0.6340    14.6339    14.6332     0.0007     1.4631     1.5488     1.0000     2.800
     37     0.0001     1.0002     0.0320     10.274    135.000 259617.000     10.000    41.2634     0.0000   -48.3790   -13.7013    -1.8982     2.8970    20.6309    41.2644     0.6340    14.6339    14.6332     0.0007     1.4637     1.5517     1.0000     2.800
     38    -0.0002     1.0002     0.0340     10.247    173.000 259617.000     10.000    41.2634     0.0000   -48.2154   -13.7042    -1.8908     2.8887    20.6309    41.2644     0.6341    14.6339    14.6332     0.0007     1.4637     1.5534     1.0000     2.800
     39    -0.0020     1.0000     0.0360     10.244    162.000 259617.000     10.000    41.2634     0.0000   -48.0520   -13.7022    -1.7929     2.8865    20.6309    41.2644     0.6340    14.6339    14.6332     0.0007     1.4639     1.5518     1.0000     2.800
     40     0.0002     0.9998     0.0380     10.245    148.000 259617.000     10.000    41.2634     0.0000   -47.8886   -13.7022    -1.9063     2.8914    20.6309    41.2644     0.6340    14.6339    14.6332     0.0007     1.4625     1.5551     1.0000     2.800
     41    -0.0003     0.9996     0.0400     10.254    147.000 259617.000     10.000    41.2634     0.0000   -47.7253   -13.7022    -1.8874     2.8860    20.6309    41.2644     0.6340    14.6339    14.6332     0.0007     1.4629     1.5524     1.0000     2.800
     42    -0.0000     0.9995     0.0419     10.248    131.000 259617.000     10.000    41.2634     0.0000   -47.5622   -13.7022    -1.8965     2.8903    20.6309    41.2644     0.6340    14.6339    14.6332     0.0007     1.4642     1.5558     1.0000     2.800
     43    -0.0011     0.9993     0.0439     10.282    156.000 259617.000     10.000    41.2634     0.0000   -47.3992   -13.7022    -1.8396     2.8865    20.6309    41.2644     0.6340    14.6339    14.6332     0.0007     1.4655     1.5582     1.0000     2.800
     44     0.0001     0.9999     0.0460     10.207    154.000 259617.000     10.000    41.2634     0.0000   -47.2363   -13.7131    -1.8994     2.8951    20.6309    41.2644     0.6345    14.6339    14.6332     0.0007     1.4636     1.5590     1.0000     2.800
     45    -0.0022     0.9997     0.0480     10.245    171.000 259617.000     10.000    41.2634     0.0000   -47.0735   -13.7131    -1.7791     2.8864    20.6309    41.2644     0.6345    14.6339    14.6332     0.0007     1.4647     1.5543     1.0000     2.800
     46    -0.0018     0.9995     0.0499     10.240    135.000 259617.000     10.000    41.2634     0.0000   -46.9108   -13.7131    -1.8049     2.8876    20.6309    41.2644     0.6345    14.6339    14.6332     0.0007     1.4644     1.5547     1.0000     2.800
     47     0.0001     0.9993     0.0519     10.244    155.000 259617.000     10.000    41.2634     0.0000   -46.7483   -13.7131    -1.9025     2.8909    20.6309    41.2644     0.6345    14.6339    14.6332     0.0007     1.4645     1.5585     1.0000     2.800
     48    -0.0025     1.0000     0.0540     10.246    127.000 259617.000     10.000    41.2634     0.0000   -46.5858   -13.7259    -1.7674     2.8879    20.6309    41.2644     0.6351    14.6339    14.6332     0.0007     1.4648     1.5563     1.0000     2.800
     49    -0.0001     0.9998     0.0560     10.263    161.000 259617.000     10.000    41.2634     0.0000   -46.4236   -13.7259    -1.8903     2.8955    20.6309    41.2644     0.6351    14.6339    14.6332     0.0007     1.4642     1.5563     1.0000     2.800
     50    -0.0005     0.9995     0.0579     10.217    160.000 259617.000     10.000    41.2634     0.0000   -46.2614   -13.7259    -1.8729     2.8901    20.6309    41.2644     0.6351    14.6339    14.6332     0.0007     1.4660     1.5608     1.0000     2.800
     51     0.0001     0.9993     0.0599     10.248    152.000 259617.000     10.000    41.2634     0.0000   -46.0994   -13.7259    -1.8955     2.8996    20.6309    41.2644     0.6351    14.6339    14.6332     0.0007     1.4646     1.5613     1.0000     2.800
     52    -0.0011     1.0000     0.0620     10.234    154.000 259617.000     10.000    41.2634     0.0000   -45.9375   -13.7387    -1.8376     2.8937    20.6309    41.2644     0.6357    14.6339    14.6332     0.0007     1.4659     1.5597     1.0000     2.800
     53    -0.0020     0.9997     0.0640     10.298    148.000 259617.000     10.000    41.2634     0.0000   -45.7757   -13.7387    -1.7923     2.8881    20.6309    41.2644     0.6357    14.6339    14.6332     0.0007     1.4661     1.5583     1.0000     2.800
     54     0.0000     0.9995     0.0659     10.270    168.000 259617.000     10.000    41.2634     0.0000   -45.6141   -13.7387    -1.8891     2.9028    20.6309    41.2644     0.6357    14.6339    14.6332     0.0007     1.4645     1.5553     1.0000     2.800
     55    -0.0006     1.0000     0.0680     10.282    167.000 259617.000     10.000    41.2634     0.0000   -45.4527   -13.7505    -1.8641     2.8920    20.6309    41.2644     0.6362    14.6339    14.6332     0.0007     1.4650     1.5533     1.0000     2.800
     56     0.0000     0.9997     0.0700     10.249    157.000 259617.000     10.000    41.2634     0.0000   -45.2914   -13.7505    -1.8959     2.8931    20.6309    41.2644     0.6362    14.6339    14.6332     0.0007     1.4651     1.5593     1.0000     2.800
     57     0.0001     0.9995     0.0719     10.242    174.000 259617.000     10.000    41.2634     0.0000   -45.1302   -13.7505    -1.8982     2.8974    20.6309    41.2644     0.6362    14.6339    14.6332     0.0007     1.4645     1.5566     1.0000     2.800
     58    -0.0001     0.9999     0.0740     10.263    160.000 259617.000     10.000    41.2634     0.0000   -44.9692   -13.7613    -1.8962     2.8879    20.6309    41.2644     0.6367    14.6339    14.6332     0.0007     1.4641     1.5531     1.0000     2.800
     59    -0.0011     0.9996     0.0759     10.223    138.000 259617.000     10.000    41.2634     0.0000   -44.8083   -13.7613    -1.8409     2.8894    20.6309    41.2644     0.6367    14.6339    14.6332     0.0007     1.4649     1.5562     1.0000     2.800
     60     0.0001     0.9993     0.0779     10.277    150.000 259617.000     10.000    41.2634     0.0000   -44.6476   -13.7613    -1.8970     2.8952    20.6309    41.2644     0.6367    14.6339    14.6332     0.0007     1.4641     1.5580     1.0000     2.800
     61     0.0000     1.0001     0.0800     10.260    150.000 259617.000     10.000    41.2634     0.0000   -44.4871   -13.7761    -1.8981     2.8910    20.6309    41.2644     0.6374    14.6339    14.6332     0.0007     1.4641     1.5523     1.0000     2.800
     62    -0.0003     0.9997     0.0820     10.269    153.000 259617.000     10.000    41.2634     0.0000   -44.3267   -13.7761    -1.8815     2.8900    20.6309    41.2644     0.6374    14.6339    14.6332     0.0007     1.4650     1.5539     1.0000     2.800
     63    -0.0001     0.9994     0.0839     10.298    154.000 259617.000     10.000    41.2634     0.0000   -44.1665   -13.7761    -1.8979     2.8832    20.6309    41.2644     0.6374    14.6339    14.6332     0.0007     1.4644     1.5547     1.0000     2.800
     64    -0.0000     1.0000     0.0860     10.277    191.000 259617.000     10.000    41.2634     0.0000   -44.0064   -13.7898    -1.8919     2.8952    20.6309    41.2644     0.6380    14.6339    14.6332     0.0007     1.4638     1.5587     1.0000     2.800
     65    -0.0003     0.9997     0.0879     10.285    136.000 259617.000     10.000    41.2634     0.0000   -43.8466   -13.7898    -1.8829     2.8913    20.6309    41.2644     0.6380    14.6339    14.6332     0.0007     1.4648     1.5572     1.0000     2.800
     66     0.0002     0.9993     0.0899     10.231    171.000 259617.000     10.000    41.2634     0.0000   -43.6869   -13.7898    -1.8999     2.9012    20.6309    41.2644     0.6380    14.6339    14.6332     0.0007     1.4637     1.5603     1.0000     2.800
     67    -0.0013     0.9999     0.0920     10.223    168.000 259617.000     10.000    41.2634     0.0000   -43.5273   -13.8036    -1.8259     2.8990    20.6309    41.2644     0.6387    14.6339    14.6332     0.0007     1.4663     1.5625     1.0000     2.800
     68    -0.0001     0.9996     0.0939     10.238    165.000 259617.000     10.000    41.2634     0.0000   -43.3680   -13.8036    -1.8887     2.8934    20.6309    41.2644     0.6387    14.6339    14.6332     0.0007     1.4659     1.5658     1.0000     2.800
     69    -0.0009     1.0000     0.0960     10.272    169.000 259617.000     10.000    41.2634     0.0000   -43.2088   -13.8144    -1.8479     2.8952    20.6309    41.2644     0.6392    14.6339    14.6332     0.0007     1.4669     1.5645     1.0000     2.800
     70    -0.0003     0.9996     0.0979     10.229    160.000 259617.000     10.000    41.2634     0.0000   -43.0498   -13.8144    -1.8751     2.8990    20.6309    41.2644     0.6392    14.6339    14.6332     0.0007     1.4665     1.5669     1.0000     2.800
     71    -0.0000     1.0000     0.1000     10.203    165.000 259617.000     10.000    41.2634     0.0000   -42.8910   -13.8263    -1.8932     2.8945    20.6309    41.2644     0.6397    14.6339    14.6332     0.0007     1.4669     1.5629     1.0000     2.800
     72     0.0001     0.9996     0.1019     10.256    180.000 259617.000     10.000    41.2634     0.0000   -42.7324   -13.8263    -1.8969     2.8993    20.6309    41.2644     0.6397    14.6339    14.6332     0.0007     1.4670     1.5606     1.0000     2.800
     73    -0.0008     1.0000     0.1040     10.276    160.000 259617.000     10.000    41.2634     0.0000   -42.5739   -13.8371    -1.8529     2.8950    20.6309    41.2644     0.6402    14.6339    14.6332     0.0007     1.4673     1.5656     1.0000     2.800
     74    -0.0001     0.9996     0.1059     10.267    157.000 259617.000     10.000    41.2634     0.0000   -42.4157   -13.8371    -1.8891     2.8980    20.6309    41.2644     0.6402    14.6339    14.6332     0.0007     1.4657     1.5598     1.0000     2.800
     75    -0.0011     1.0000     0.1080     10.265    160.000 259617.000     10.000    41.2634     0.0000   -42.2577   -13.8499    -1.8356     2.8972    20.6309    41.2644     0.6408    14.6339    14.6332     0.0007     1.4671     1.5597     1.0000     2.800
     76     0.0000     0.9996     0.1099     10.213    161.000 259617.000     10.000    41.2634     0.0000   -42.0998   -13.8499    -1.8948     2.8942    20.6309    41.2644     0.6408    14.6339    14.6332     0.0007     1.4671     1.5631     1.0000     2.800
     77    -0.0008     0.9999     0.1120     10.249    144.000 259617.000     10.000    41.2634     0.0000   -41.9421   -13.8607    -1.8547     2.8934    20.6309    41.2644     0.6413    14.6339    14.6332     0.0007     1.4669     1.5620     1.0000     2.800
     78     0.0001     0.9995     0.1139     10.296    154.000 259617.000     10.000    41.2634     0.0000   -41.7847   -13.8607    -1.9002     2.8916    20.6309    41.2644     0.6413    14.6339    14.6332     0.0007     1.4651     1.5590     1.0000     2.800
     79    -0.0001     1.0001     0.1160     10.244    180.000 259617.000     10.000    41.2634     0.0000   -41.6274   -13.8755    -1.8881     2.8948    20.6309    41.2644     0.6420    14.6339    14.6332     0.0007     1.4647     1.5664     1.0000     2.800
     80    -0.0003     0.9996     0.1179     10.245    170.000 259617.000     10.000    41.2634     0.0000   -41.4704   -13.8755    -1.8743     2.8997    20.6309    41.2644     0.6420    14.6339    14.6332     0.0007     1.4674     1.5608     1.0000     2.800
     81     0.0002     1.0000     0.1200     10.264    157.000 259617.000     10.000    41.2634     0.0000   -41.3135   -13.8873    -1.9044     2.8951    20.6309    41.2644     0.6425    14.6339    14.6332     0.0007     1.4666     1.5595     1.0000     2.800
     82    -0.0001     0.9995     0.1219     10.282    166.000 259617.000     10.000    41.2634     0.0000   -41.1569   -13.8873    -1.8975     2.8828    20.6309    41.2644     0.6425    14.6339    14.6332     0.0007     1.4651     1.5588     1.0000     2.800
     83    -0.0001     1.0000     0.1240     10.256    155.000 259617.000     10.000    41.2634     0.0000   -41.0005   -13.9020    -1.8916     2.8912    20.6309    41.2644     0.6432    14.6339    14.6332     0.0007     1.4662     1.5629     1.0000     2.800
     84    -0.0014     0.9995     0.1259     10.250    173.000 259617.000     10.000    41.2634     0.0000   -40.8443   -13.9020    -1.8256     2.8920    20.6309    41.2644     0.6432    14.6339    14.6332     0.0007     1.4668     1.5607     1.0000     2.800
     85    -0.0002     1.0001     0.1280     10.253    186.000 259617.000     10.000    41.2634     0.0000   -40.6883   -13.9168    -1.8950     2.8801    20.6309    41.2644     0.6439    14.6339    14.6332     0.0007     1.4658     1.5626     1.0000     2.800
     86    -0.0002     0.9996     0.1299     10.278    182.000 259617.000     10.000    41.2634     0.0000   -40.5325   -13.9168    -1.8905     2.8871    20.6309    41.2644     0.6439    14.6339    14.6332     0.0007     1.4671     1.5629     1.0000     2.800
     87     0.0001     1.0000     0.1320     10.263    171.000 259617.000     10.000    41.2634     0.0000   -40.3769   -13.9296    -1.8988     2.8919    20.6309    41.2644     0.6445    14.6339    14.6332     0.0007     1.4668     1.5658     1.0000     2.800
     88    -0.0020     0.9994     0.1339     10.225    166.000 259617.000     10.000    41.2634     0.0000   -40.2216   -13.9296    -1.8000     2.8885    20.6309    41.2644     0.6445    14.6339    14.6332     0.0007     1.4676     1.5654     1.0000     2.800
     89    -0.0001     1.0000     0.1360     10.242    160.000 259617.000     10.000    41.2634     0.0000   -40.0665   -13.9453    -1.8934     2.8850    20.6309    41.2644     0.6452    14.6339    14.6332     0.0007     1.4668     1.5624     1.0000     2.800
     90     0.0001     0.9995     0.1379     10.232    157.000 259617.000     10.000    41.2634     0.0000   -39.9116   -13.9453    -1.8993     2.8955    20.6309    41.2644     0.6452    14.6339    14.6332     0.0007     1.4667     1.5644     1.0000     2.800
     91    -0.0000     1.0000     0.1400     10.209    158.000 259617.000     10.000    41.2634     0.0000   -39.7570   -13.9601    -1.8960     2.8887    20.6309    41.2644     0.6459    14.6339    14.6332     0.0007     1.4669     1.5616     1.0000     2.800
     92    -0.0000     0.9994     0.1419     10.233    176.000 259617.000     10.000    41.2634     0.0000   -39.6025   -13.9601    -1.8942     2.8941    20.6309    41.2644     0.6459    14.6339    14.6332     0.0007     1.4667     1.5614     1.0000     2.800
     93     0.0001     1.0000     0.1440     10.250    165.000 259617.000     10.000    41.2634     0.0000   -39.4483   -13.9768    -1.8954     2.8971    20.6309    41.2644     0.6467    14.6339    14.6332     0.0007     1.4673     1.5621     1.0000     2.800
     94    -0.0014     0.9995     0.1459     10.272    168.000 259617.000     10.000    41.2634     0.0000   -39.2944   -13.9768    -1.8266     2.8917    20.6309    41.2644     0.6467    14.6339    14.6332     0.0007     1.4677     1.5634     1.0000     2.800
     95     0.0001     1.0000     0.1480     10.256    182.000 259617.000     10.000    41.2634     0.0000   -39.1406   -13.9926    -1.8960     2.8958    20.6309    41.2644     0.6474    14.6339    14.6332     0.0007     1.4662     1.5616     1.0000     2.800
     96    -0.0013     0.9994     0.1499     10.283    189.000 259617.000     10.000    41.2634     0.0000   -38.9872   -13.9926    -1.8324     2.8941    20.6309    41.2644     0.6474    14.6339    14.6332     0.0007     1.4676     1.5618     1.0000     2.800
     97    -0.0002     1.0000     0.1520     10.233    153.000 259617.000     10.000    41.2634     0.0000   -38.8339   -14.0093    -1.8894     2.8898    20.6309    41.2644     0.6482    14.6339    14.6332     0.0007     1.4661     1.5626     1.0000     2.800
     98    -0.0008     0.9994     0.1539     10.233    173.000 259617.000     10.000    41.2634     0.0000   -38.6809   -14.0093    -1.8609     2.8890    20.6309    41.2644     0.6482    14.6339    14.6332     0.0007     1.4666     1.5593     1.0000     2.800
     99     0.0002     1.0000     0.1560     10.231    183.000 259617.000     10.000    41.2634     0.0000   -38.5282   -14.0270    -1.9014     2.8967    20.6309    41.2644     0.6490    14.6339    14.6332     0.0007     1.4668     1.5631     1.0000     2.800
    100    -0.0025     0.9994     0.1579     10.267    177.000 259617.000     10.000    41.2634     0.0000   -38.3756   -14.0270    -1.7823     2.8855    20.6309    41.2644     0.6490    14.6339    14.6332     0.0007     1.4666     1.5598     1.0000     2.800
    101    -0.0001     1.0000     0.1600     10.324    199.000 259617.000     10.000    41.2634     0.0000   -38.2234   -14.0438    -1.8946     2.8876    20.6309    41.2644     0.6497    14.6339    14.6332     0.0007     1.4669     1.5621     1.0000     2.800
    102    -0.0025     0.9994     0.1618     10.267    201.000 259617.000     10.000    41.2634     0.0000   -38.0714   -14.0438    -1.7828     2.8868    20.6309    41.2644     0.6497    14.6339    14.6332     0.0007     1.4672     1.5626     1.0000     2.800
    103    -0.0001     1.0000     0.1640     10.250    183.000 259617.000     10.000    41.2634     0.0000   -37.9196   -14.0615    -1.8919     2.8923    20.6309    41.2644     0.6506    14.6339    14.6332     0.0007     1.4674     1.5642     1.0000     2.800
    104    -0.0006     0.9993     0.1658     10.245    165.000 259617.000     10.000    41.2634     0.0000   -37.7681   -14.0615    -1.8658     2.8981    20.6309    41.2644     0.6506    14.6339    14.6332     0.0007     1.4669     1.5603     1.0000     2.800
    105     0.0002     1.0001     0.1680     10.319    160.000 259617.000     10.000    41.2634     0.0000   -37.6168   -14.0822    -1.8990     2.9000    20.6309    41.2644     0.6515    14.6339    14.6332     0.0007     1.4676     1.5664     1.0000     2.800
    106    -0.0015     0.9995     0.1699     10.292    177.000 259617.000     10.000    41.2634     0.0000   -37.4658   -14.0822    -1.8228     2.8932    20.6309    41.2644     0.6515    14.6339    14.6332     0.0007     1.4663     1.5602     1.0000     2.800
    107     0.0000     0.9999     0.1720     10.217    196.000 259617.000     10.000    41.2634     0.0000   -37.3151   -14.0979    -1.8927     2.8980    20.6309    41.2644     0.6522    14.6339    14.6332     0.0007     1.4675     1.5649     1.0000     2.800
    108     0.0003     1.0000     0.1740     10.250    186.000 259617.000     10.000    41.2634     0.0000   -37.1646   -14.1087    -1.9052     2.8974    20.6309    41.2644     0.6527    14.6339    14.6332     0.0007     1.4672     1.5601     1.0000     2.800
    109     0.0001     0.9993     0.1758     10.253    169.000 259617.000     10.000    41.2634     0.0000   -37.0144   -14.1087    -1.8972     2.8943    20.6309    41.2644     0.6527    14.6339    14.6332     0.0007     1.4674     1.5680     1.0000     2.800
    110    -0.0010     1.0001     0.1780     10.251    210.000 259617.000     10.000    41.2634     0.0000   -36.8644   -14.1294    -1.8494     2.8923    20.6309    41.2644     0.6537    14.6339    14.6332     0.0007     1.4677     1.5615     1.0000     2.800
    111     0.0001     0.9994     0.1798     10.267    214.000 259617.000     10.000    41.2634     0.0000   -36.7148   -14.1294    -1.8962     2.8979    20.6309    41.2644     0.6537    14.6339    14.6332     0.0007     1.4671     1.5647     1.0000     2.800
    112    -0.0022     1.0000     0.1820     10.228    222.000 259617.000     10.000    41.2634     0.0000   -36.5653   -14.1481    -1.7933     2.8925    20.6309    41.2644     0.6545    14.6339    14.6332     0.0007     1.4680     1.5669     1.0000     2.800
    113    -0.0001     0.9999     0.1840     10.246    212.000 259617.000     10.000    41.2634     0.0000   -36.4162   -14.1570    -1.8889     2.8968    20.6309    41.2644     0.6550    14.6339    14.6332     0.0007     1.4668     1.5635     1.0000     2.800
    114    -0.0011     1.0000     0.1860     10.240    226.000 259617.000     10.000    41.2634     0.0000   -36.2673   -14.1688    -1.8424     2.8940    20.6309    41.2644     0.6555    14.6339    14.6332     0.0007     1.4663     1.5597     1.0000     2.800
    115    -0.0001     0.9993     0.1878     10.209    218.000 259617.000     10.000    41.2634     0.0000   -36.1187   -14.1688    -1.8905     2.8944    20.6309    41.2644     0.6555    14.6339    14.6332     0.0007     1.4675     1.5669     1.0000     2.800
    116     0.0002     1.0002     0.1900     10.248    208.000 259617.000     10.000    41.2634     0.0000   -35.9704   -14.1914    -1.9070     2.8905    20.6309    41.2644     0.6565    14.6339    14.6332     0.0007     1.4683     1.5623     1.0000     2.800
    117     0.0000     0.9994     0.1918     10.280    209.000 259617.000     10.000    41.2634     0.0000   -35.8223   -14.1914    -1.8979     2.8892    20.6309    41.2644     0.6565    14.6339    14.6332     0.0007     1.4680     1.5654     1.0000     2.800
    118    -0.0002     0.9999     0.1940     10.244    218.000 259617.000     10.000    41.2634     0.0000   -35.6745   -14.2081    -1.8886     2.8890    20.6309    41.2644     0.6573    14.6339    14.6332     0.0007     1.4670     1.5632     1.0000     2.800
    119    -0.0018     1.0000     0.1960     10.256    229.000 259617.000     10.000    41.2634     0.0000   -35.5270   -14.2209    -1.8156     2.8880    20.6309    41.2644     0.6579    14.6339    14.6332     0.0007     1.4673     1.5645     1.0000     2.800
    120    -0.0001     1.0000     0.1980     10.213    246.000 259617.000     10.000    41.2634     0.0000   -35.3798   -14.2318    -1.8981     2.8831    20.6309    41.2644     0.6584    14.6339    14.6332     0.0007     1.4674     1.5669     1.0000     2.800
    121    -0.0001     1.0000     0.2000     10.250    224.000 259617.000     10.000    41.2634     0.0000   -35.2329   -14.2426    -1.8895     2.8944    20.6309    41.2644     0.6589    14.6339    14.6332     0.0007     1.4681     1.5723     1.0000     2.800
    122     0.0001     1.0001     0.2020     10.262    232.000 259617.000     10.000    41.2634     0.0000   -35.0862   -14.2544    -1.8990     2.8936    20.6309    41.2644     0.6594    14.6339    14.6332     0.0007     1.4682     1.5672     1.0000     2.800
    123    -0.0021     0.9999     0.2040     10.277    240.000 259617.000     10.000    41.2634     0.0000   -34.9398   -14.2633    -1.8012     2.8887    20.6309    41.2644     0.6598    14.6339    14.6332     0.0007     1.4685     1.5649     1.0000     2.800
    124    -0.0001     1.0001     0.2060     10.300    225.000 259617.000     10.000    41.2634     0.0000   -34.7938   -14.2770    -1.8903     2.8907    20.6309    41.2644     0.6605    14.6339    14.6332     0.0007     1.4678     1.5677     1.0000     2.800
    125    -0.0005     0.9999     0.2080     10.267    231.000 259617.000     10.000    41.2634     0.0000   -34.6480   -14.2859    -1.8763     2.8893    20.6309    41.2644     0.6609    14.6339    14.6332     0.0007     1.4682     1.5660     1.0000     2.800
    126    -0.0001     1.0000     0.2100     10.255    265.000 259617.000     10.000    41.2634     0.0000   -34.5025   -14.2987    -1.8911     2.8946    20.6309    41.2644     0.6615    14.6339    14.6332     0.0007     1.4676     1.5654     1.0000     2.800
    127    -0.0001     1.0000     0.2120     10.239    292.000 259617.000     10.000    41.2634     0.0000   -34.3572   -14.3105    -1.8916     2.8921    20.6309    41.2644     0.6620    14.6339    14.6332     0.0007     1.4673     1.5593     1.0000     2.800
    128     0.0000     1.0000     0.2140     10.275    316.000 259617.000     10.000    41.2634     0.0000   -34.2123   -14.3213    -1.8966     2.8937    20.6309    41.2644     0.6625    14.6339    14.6332     0.0007     1.4678     1.5635     1.0000     2.800
    129     0.0003     1.0000     0.2160     10.253    363.000 259617.000     10.000    41.2634     0.0000   -34.0677   -14.3331    -1.9081     2.8932    20.6309    41.2644     0.6631    14.6339    14.6332     0.0007     1.4670     1.5615     1.0000     2.800
    130    -0.0001     1.0001     0.2180     10.307    375.000 259617.000     10.000    41.2634     0.0000   -33.9234   -14.3459    -1.8947     2.8829    20.6309    41.2644     0.6636    14.6339    14.6332     0.0007     1.4682     1.5657     1.0000     2.800
    131    -0.0000     0.9999     0.2200     10.279    422.000 259617.000     10.000    41.2634     0.0000   -33.7793   -14.3558    -1.8913     2.8975    20.6309    41.2644     0.6641    14.6339    14.6332     0.0007     1.4668     1.5636     1.0000     2.800
    132    -0.0018     1.0001     0.2220     10.256    474.000 259617.000     10.000    41.2634     0.0000   -33.6356   -14.3705    -1.8156     2.8939    20.6309    41.2644     0.6648    14.6339    14.6332     0.0007     1.4681     1.5635     1.0000     2.800
    133    -0.0014     0.9999     0.2240     10.234    632.000 259617.000     10.000    41.2634     0.0000   -33.4921   -14.3804    -1.8329     2.8967    20.6309    41.2644     0.6652    14.6339    14.6332     0.0007     1.4693     1.5648     1.0000     2.800
    134     0.0000     1.0000     0.2260     10.247    819.000 259617.000     10.000    41.2634     0.0000   -33.3490   -14.3932    -1.8995     2.8862    20.6309    41.2644     0.6658    14.6339    14.6332     0.0007     1.4679     1.5692     1.0000     2.800
    135    -0.0032     1.0000     0.2280     10.236   1013.000 259617.000     10.000    41.2634     0.0000   -33.2062   -14.4050    -1.7584     2.8828    20.6309    41.2644     0.6664    14.6339    14.6332     0.0007     1.4686     1.5620     1.0000     2.800
    136    -0.0001     1.0001     0.2300     10.261   1445.000 259617.000     10.000    41.2634     0.0000   -33.0636   -14.4188    -1.8921     2.8917    20.6309    41.2644     0.6670    14.6339    14.6332     0.0007     1.4676     1.5642     1.0000     2.800
    137    -0.0017     1.0000     0.2320     10.328   2064.000 259617.000     10.000    41.2634     0.0000   -32.9214   -14.4306    -1.8243     2.8866    20.6309    41.2644     0.6675    14.6339    14.6332     0.0007     1.4696     1.5639     1.0000     2.800
    138     0.0000     1.0000     0.2340     10.268   2476.000 259617.000     10.000    41.2634     0.0000   -32.7795   -14.4424    -1.8989     2.8883    20.6309    41.2644     0.6681    14.6339    14.6332     0.0007     1.4679     1.5665     1.0000     2.800
    139    -0.0008     1.0000     0.2360     10.271   2715.000 259617.000     10.000    41.2634     0.0000   -32.6378   -14.4562    -1.8617     2.8889    20.6309    41.2644     0.6687    14.6339    14.6332     0.0007     1.4685     1.5647     1.0000     2.800
    140    -0.0002     1.0000     0.2380     10.240   2783.000 259617.000     10.000    41.2634     0.0000   -32.4965   -14.4680    -1.8893     2.8880    20.6309    41.2644     0.6693    14.6339    14.6332     0.0007     1.4680     1.5685     1.0000     2.800
    141    -0.0018     1.0000     0.2400     10.251   3219.000 259617.000     10.000    41.2634     0.0000   -32.3555   -14.4818    -1.8175     2.8901    20.6309    41.2644     0.6699    14.6339    14.6332     0.0007     1.4688     1.5661     1.0000     2.800
    142    -0.0002     1.0000     0.2420     10.230   5854.000 259617.000     10.000    41.2634     0.0000   -32.2148   -14.4946    -1.8875     2.8884    20.6309    41.2644     0.6705    14.6339    14.6332     0.0007     1.4697     1.5679     1.0000     2.800
    143    -0.0022     0.9999     0.2440     10.230  11301.000 259617.000     10.000    41.2634     0.0000   -32.0744   -14.5064    -1.8023     2.8857    20.6309    41.2644     0.6710    14.6339    14.6332     0.0007     1.4693     1.5655     1.0000     2.800
    144     0.0005     1.0000     0.2460     10.228  24067.000 259617.000     10.000    41.2634     0.0000   -31.9344   -14.5211    -1.9180     2.8898    20.6309    41.2644     0.6717    14.6339    14.6332     0.0007     1.4694     1.5702     1.0000     2.800
    145    -0.0000     1.0001     0.2480     10.271  38555.000 259617.000     10.000    41.2634     0.0000   -31.7946   -14.5349    -1.8926     2.8966    20.6309    41.2644     0.6723    14.6339    14.6332     0.0007     1.4684     1.5686     1.0000     2.800
    146     0.0000     1.0000     0.2500     10.294  34354.000 259617.000     10.000    41.2634     0.0000   -31.6551   -14.5467    -1.8965     2.8926    20.6309    41.2644     0.6729    14.6339    14.6332     0.0007     1.4681     1.5658     1.0000     2.800
    147    -0.0004     1.0000     0.2520     10.257  20859.000 259617.000     10.000    41.2634     0.0000   -31.5160   -14.5605    -1.8754     2.8946    20.6309    41.2644     0.6735    14.6339    14.6332     0.0007     1.4687     1.5657     1.0000     2.800
    148     0.0000     1.0000     0.2540     10.291  10132.000 259617.000     10.000    41.2634     0.0000   -31.3772   -14.5743    -1.8972     2.8896    20.6309    41.2644     0.6742    14.6339    14.6332     0.0007     1.4687     1.5663     1.0000     2.800
    149    -0.0006     1.0000     0.2560     10.261   6673.000 259617.000     10.000    41.2634     0.0000   -31.2387   -14.5881    -1.8690     2.8926    20.6309    41.2644     0.6748    14.6339    14.6332     0.0007     1.4696     1.5724     1.0000     2.800
    150    -0.0003     1.0000     0.2580     10.245   4955.000 259617.000     10.000    41.2634     0.0000   -31.1005   -14.6009    -1.8862     2.8869    20.6309    41.2644     0.6754    14.6339    14.6332     0.0007     1.4678     1.5677     1.0000     2.800
    151    -0.0007     1.0001     0.2600     10.257   2161.000 259617.000     10.000    41.2634     0.0000   -30.9627   -14.6166    -1.8670     2.8900    20.6309    41.2644     0.6761    14.6339    14.6332     0.0007     1.4682     1.5645     1.0000     2.800
    152    -0.0002     1.0000     0.2620     10.301    749.000 259617.000     10.000    41.2634     0.0000   -30.8251   -14.6294    -1.8915     2.8852    20.6309    41.2644     0.6767    14.6339    14.6332     0.0007     1.4695     1.5672     1.0000     2.800
    153    -0.0001     1.0000     0.2640     10.266    474.000 259617.000     10.000    41.2634     0.0000   -30.6879   -14.6432    -1.8916     2.8892    20.6309    41.2644     0.6773    14.6339    14.6332     0.0007     1.4689     1.5694     1.0000     2.800
    154    -0.0008     1.0000     0.2660     10.266    417.000 259617.000     10.000    41.2634     0.0000   -30.5510   -14.6579    -1.8590     2.8929    20.6309    41.2644     0.6780    14.6339    14.6332     0.0007     1.4695     1.5668     1.0000     2.800
    155     0.0000     1.0000     0.2680     10.239    469.000 259617.000     10.000    41.2634     0.0000   -30.4144   -14.6717    -1.8966     2.8902    20.6309    41.2644     0.6786    14.6339    14.6332     0.0007     1.4687     1.5700     1.0000     2.800
    156     0.0001     1.0000     0.2700     10.291    460.000 259617.000     10.000    41.2634     0.0000   -30.2782   -14.6865    -1.8971     2.8975    20.6309    41.2644     0.6793    14.6339    14.6332     0.0007     1.4715     1.5731     1.0000     2.800
    157    -0.0024     1.0000     0.2720     10.262    485.000 259617.000     10.000    41.2634     0.0000   -30.1422   -14.7003    -1.7974     2.8856    20.6309    41.2644     0.6800    14.6339    14.6332     0.0007     1.4695     1.5717     1.0000     2.800
    158    -0.0000     1.0001     0.2740     10.298    413.000 259617.000     10.000    41.2634     0.0000   -30.0066   -14.7160    -1.8978     2.8834    20.6309    41.2644     0.6807    14.6339    14.6332     0.0007     1.4690     1.5696     1.0000     2.800
    159    -0.0001     1.0000     0.2760     10.258    378.000 259617.000     10.000    41.2634     0.0000   -29.8714   -14.7288    -1.8910     2.8937    20.6309    41.2644     0.6813    14.6339    14.6332     0.0007     1.4696     1.5730     1.0000     2.800
    160    -0.0001     1.0000     0.2780     10.242    315.000 259617.000     10.000    41.2634     0.0000   -29.7364   -14.7446    -1.8929     2.8903    20.6309    41.2644     0.6820    14.6339    14.6332     0.0007     1.4712     1.5695     1.0000     2.800
    161    -0.0001     1.0000     0.2800     10.282    276.000 259617.000     10.000    41.2634     0.0000   -29.6018   -14.7583    -1.8963     2.8831    20.6309    41.2644     0.6826    14.6339    14.6332     0.0007     1.4686     1.5702     1.0000     2.800
    162    -0.0002     1.0001     0.2820     10.319    265.000 259617.000     10.000    41.2634     0.0000   -29.4675   -14.7751    -1.8876     2.8919    20.6309    41.2644     0.6834    14.6339    14.6332     0.0007     1.4704     1.5716     1.0000     2.800
    163    -0.0001     0.9999     0.2840     10.265    251.000 259617.000     10.000    41.2634     0.0000   -29.3335   -14.7879    -1.8908     2.8905    20.6309    41.2644     0.6840    14.6339    14.6332     0.0007     1.4698     1.5685     1.0000     2.800
    164     0.0000     1.0000     0.2860     10.272    230.000 259617.000     10.000    41.2634     0.0000   -29.1999   -14.8036    -1.8980     2.8862    20.6309    41.2644     0.6847    14.6339    14.6332     0.0007     1.4699     1.5717     1.0000     2.800
    165    -0.0001     1.0000     0.2880     10.267    219.000 259617.000     10.000    41.2634     0.0000   -29.0666   -14.8184    -1.8905     2.8978    20.6309    41.2644     0.6854    14.6339    14.6332     0.0007     1.4703     1.5758     1.0000     2.800
    166    -0.0013     1.0000     0.2900     10.260    221.000 259617.000     10.000    41.2634     0.0000   -28.9336   -14.8341    -1.8417     2.8902    20.6309    41.2644     0.6861    14.6339    14.6332     0.0007     1.4693     1.5646     1.0000     2.800
    167     0.0000     1.0000     0.2920     10.280    199.000 259617.000     10.000    41.2634     0.0000   -28.8010   -14.8489    -1.8946     2.8962    20.6309    41.2644     0.6868    14.6339    14.6332     0.0007     1.4685     1.5702     1.0000     2.800
    168    -0.0017     1.0000     0.2940     10.233    226.000 259617.000     10.000    41.2634     0.0000   -28.6687   -14.8646    -1.8215     2.8990    20.6309    41.2644     0.6875    14.6339    14.6332     0.0007     1.4701     1.5732     1.0000     2.800
    169    -0.0000     1.0000     0.2960     10.229    209.000 259617.000     10.000    41.2634     0.0000   -28.5367   -14.8804    -1.8978     2.8831    20.6309    41.2644     0.6882    14.6339    14.6332     0.0007     1.4684     1.5727     1.0000     2.800
    170     0.0002     1.0000     0.2980     10.235    226.000 259617.000     10.000    41.2634     0.0000   -28.4051   -14.8961    -1.9016     2.8962    20.6309    41.2644     0.6890    14.6339    14.6332     0.0007     1.4695     1.5739     1.0000     2.800
    171    -0.0002     1.0000     0.3000     10.251    211.000 259617.000     10.000    41.2634     0.0000   -28.2738   -14.9119    -1.8907     2.8868    20.6309    41.2644     0.6897    14.6339    14.6332     0.0007     1.4703     1.5749     1.0000     2.800
    172    -0.0007     1.0000     0.3020     10.307    195.000 259617.000     10.000    41.2634     0.0000   -28.1428   -14.9276    -1.8685     2.8881    20.6309    41.2644     0.6904    14.6339    14.6332     0.0007     1.4713     1.5719     1.0000     2.800
    173    -0.0001     0.9999     0.3040     10.303    166.000 259617.000     10.000    41.2634     0.0000   -28.0122   -14.9414    -1.8919     2.8865    20.6309    41.2644     0.6910    14.6339    14.6332     0.0007     1.4708     1.5722     1.0000     2.800
    174    -0.0017     1.0001     0.3060     10.247    207.000 259617.000     10.000    41.2634     0.0000   -27.8819   -14.9601    -1.8260     2.8877    20.6309    41.2644     0.6919    14.6339    14.6332     0.0007     1.4713     1.5729     1.0000     2.800
    175    -0.0001     1.0000     0.3080     10.247    218.000 259617.000     10.000    41.2634     0.0000   -27.7519   -14.9749    -1.8924     2.8862    20.6309    41.2644     0.6926    14.6339    14.6332     0.0007     1.4703     1.5717     1.0000     2.800
    176    -0.0010     1.0000     0.3100     10.235    184.000 259617.000     10.000    41.2634     0.0000   -27.6223   -14.9916    -1.8537     2.8949    20.6309    41.2644     0.6933    14.6339    14.6332     0.0007     1.4696     1.5720     1.0000     2.800
    177    -0.0001     0.9999     0.3120     10.261    171.000 259617.000     10.000    41.2634     0.0000   -27.4930   -15.0064    -1.8934     2.8910    20.6309    41.2644     0.6940    14.6339    14.6332     0.0007     1.4696     1.5706     1.0000     2.800
    178    -0.0017     1.0000     0.3140     10.267    176.000 259617.000     10.000    41.2634     0.0000   -27.3641   -15.0231    -1.8275     2.8941    20.6309    41.2644     0.6948    14.6339    14.6332     0.0007     1.4702     1.5737     1.0000     2.800
    179     0.0003     1.0001     0.3161     10.238    197.000 259617.000     10.000    41.2634     0.0000   -27.2355   -15.0418    -1.9074     2.8902    20.6309    41.2644     0.6957    14.6339    14.6332     0.0007     1.4708     1.5703     1.0000     2.800
    180     0.0001     0.9999     0.3180     10.236    180.000 259617.000     10.000    41.2634     0.0000   -27.1072   -15.0546    -1.8990     2.8927    20.6309    41.2644     0.6962    14.6339    14.6332     0.0007     1.4701     1.5728     1.0000     2.800
    181    -0.0001     0.9999     0.3200     10.238    190.000 259617.000     10.000    41.2634     0.0000   -26.9793   -15.0713    -1.8934     2.8886    20.6309    41.2644     0.6970    14.6339    14.6332     0.0007     1.4711     1.5776     1.0000     2.800
    182    -0.0020     1.0000     0.3220     10.198    186.000 259617.000     10.000    41.2634     0.0000   -26.8517   -15.0900    -1.8150     2.8884    20.6309    41.2644     0.6979    14.6339    14.6332     0.0007     1.4710     1.5708     1.0000     2.800
    183     0.0000     1.0000     0.3240     10.234    179.000 259617.000     10.000    41.2634     0.0000   -26.7244   -15.1058    -1.8967     2.8895    20.6309    41.2644     0.6986    14.6339    14.6332     0.0007     1.4711     1.5751     1.0000     2.800
    184    -0.0029     1.0000     0.3260     10.265    195.000 259617.000     10.000    41.2634     0.0000   -26.5975   -15.1235    -1.7808     2.8839    20.6309    41.2644     0.6994    14.6339    14.6332     0.0007     1.4695     1.5699     1.0000     2.800
    185     0.0000     1.0000     0.3280     10.265    192.000 259617.000     10.000    41.2634     0.0000   -26.4710   -15.1392    -1.8968     2.8895    20.6309    41.2644     0.7001    14.6339    14.6332     0.0007     1.4702     1.5733     1.0000     2.800
    186    -0.0002     1.0001     0.3300     10.263    202.000 259617.000     10.000    41.2634     0.0000   -26.3448   -15.1579    -1.8888     2.8919    20.6309    41.2644     0.7010    14.6339    14.6332     0.0007     1.4714     1.5715     1.0000     2.800
    187    -0.0021     0.9999     0.3320     10.278    202.000 259617.000     10.000    41.2634     0.0000   -26.2189   -15.1727    -1.8144     2.8884    20.6309    41.2644     0.7017    14.6339    14.6332     0.0007     1.4702     1.5716     1.0000     2.800
    188    -0.0001     1.0001     0.3340     10.270    197.000 259617.000     10.000    41.2634     0.0000   -26.0933   -15.1924    -1.8912     2.8936    20.6309    41.2644     0.7026    14.6339    14.6332     0.0007     1.4705     1.5750     1.0000     2.800
    189    -0.0020     0.9999     0.3360     10.302    221.000 259617.000     10.000    41.2634     0.0000   -25.9681   -15.2072    -1.8137     2.8960    20.6309    41.2644     0.7033    14.6339    14.6332     0.0007     1.4707     1.5685     1.0000     2.800
    190     0.0000     1.0000     0.3380     10.233    183.000 259617.000     10.000    41.2634     0.0000   -25.8433   -15.2259    -1.8969     2.8894    20.6309    41.2644     0.7041    14.6339    14.6332     0.0007     1.4704     1.5737     1.0000     2.800
    191     0.0001     1.0000     0.3400     10.241    190.000 259617.000     10.000    41.2634     0.0000   -25.7188   -15.2426    -1.8967     2.8932    20.6309    41.2644     0.7049    14.6339    14.6332     0.0007     1.4707     1.5751     1.0000     2.800
    192    -0.0001     1.0000     0.3420     10.274    227.000 259617.000     10.000    41.2634     0.0000   -25.5946   -15.2603    -1.8919     2.8937    20.6309    41.2644     0.7057    14.6339    14.6332     0.0007     1.4714     1.5778     1.0000     2.800
    193     0.0003     1.0001     0.3440     10.265    194.000 259617.000     10.000    41.2634     0.0000   -25.4708   -15.2790    -1.9074     2.8920    20.6309    41.2644     0.7066    14.6339    14.6332     0.0007     1.4708     1.5723     1.0000     2.800
    194    -0.0002     1.0000     0.3460     10.264    183.000 259617.000     10.000    41.2634     0.0000   -25.3473   -15.2948    -1.8858     2.8938    20.6309    41.2644     0.7073    14.6339    14.6332     0.0007     1.4700     1.5716     1.0000     2.800
    195    -0.0001     1.0000     0.3480     10.254    178.000 259617.000     10.000    41.2634     0.0000   -25.2242   -15.3135    -1.8930     2.8823    20.6309    41.2644     0.7081    14.6339    14.6332     0.0007     1.4705     1.5726     1.0000     2.800
    196    -0.0001     1.0000     0.3500     10.219    209.000 259617.000     10.000    41.2634     0.0000   -25.1014   -15.3302    -1.8930     2.8911    20.6309    41.2644     0.7089    14.6339    14.6332     0.0007     1.4711     1.5763     1.0000     2.800
# Sum of Counts = 220610
# Center of Mass = 0.224630+/-0.000693
# Full Width Half-Maximum = 0.143294+/-0.000478
# 3:10:49 AM  3/13/2016   scan completed.
