# scan = 243
# date = 3/13/2016
# time = 1:06:49 PM
# proposal = IPTS-15083.1
# experiment = Evolution of the magnetic structure with applied field in multiferroic (ND4)2[FeCl5(D2O)]
# experiment_number = 718
# command = scan h 0 k 1 l -0.04 0.35 0.002 preset mcu 10
# builtin_command = scan h 0 k 1 l -0.04 0.35 0.002 preset mcu 10
# users = Wei Tian, Jaime Fernandez-Baca, Huibo Cao
# local_contact = Wei Tian
# scan_title = scan (0 1 L), 1.5K, 5.4 T
# monochromator = PG002
# analyzer = Pg002
# sense = +-+
# collimation = 40-40-40-60
# samplename = (ND4)2[FeCl5(D2O)]
# sampletype = crystal
# samplemosaic = 30.000000
# latticeconstants = 13.659912,9.922999,6.896657,90.000000,90.000000,90.000000
# ubmatrix = -0.002420,0.072257,0.100960,-0.003695,0.069997,-0.104056,-0.073074,-0.005932,0.001919
# mode = 0
# plane_normal = 0.033051,0.050478,0.998178
# ubconf = UB11Mar2016_12747PM.ini
# preset_type = normal 
# preset_channel = mcu
# preset_value = 10.000000
# def_x = l
# def_y = detector
# col_headers = 
#   Pt.          h          k          l       time   detector    monitor        mcu         m2      mag_e         s1         s2        sgl        sgu         a1         a2          q         ei         ef          e    coldtip    tsample       temp persistent_field
      1    -0.0010     1.0001    -0.0400     10.238    158.000 259617.000     10.000    41.2634     0.0000   -54.3131   -13.7091    -1.8393     2.8898    20.6309    41.2644     0.6343    14.6339    14.6332     0.0007     1.5582     1.7253     1.0000     6.000
      2    -0.0001     1.0006    -0.0380     10.239    133.000 259617.000     10.000    41.2634     0.0000   -54.1476   -13.7131    -1.8923     2.8908    20.6309    41.2644     0.6345    14.6339    14.6332     0.0007     1.5587     1.7318     1.0000     6.000
      3    -0.0001     1.0002    -0.0360     10.226    135.000 259617.000     10.000    41.2634     0.0000   -53.9822   -13.7062    -1.8925     2.8931    20.6309    41.2644     0.6342    14.6339    14.6332     0.0007     1.5582     1.7250     1.0000     6.000
      4     0.0007     1.0002    -0.0340     10.218    187.000 259617.000     10.000    41.2634     0.0000   -53.8167   -13.7042    -1.9387     2.8906    20.6309    41.2644     0.6341    14.6339    14.6332     0.0007     1.5586     1.7253     1.0000     6.000
      5    -0.0002     1.0003    -0.0320     10.243    165.000 259617.000     10.000    41.2634     0.0000   -53.6513   -13.7032    -1.8944     2.8844    20.6309    41.2644     0.6341    14.6339    14.6332     0.0007     1.5585     1.7292     1.0000     6.000
      6    -0.0000     1.0001    -0.0300     10.235    171.000 259617.000     10.000    41.2634     0.0000   -53.4859   -13.6983    -1.8932     2.8932    20.6309    41.2644     0.6338    14.6339    14.6332     0.0007     1.5589     1.7278     1.0000     6.000
      7    -0.0005     1.0001    -0.0280     10.252    160.000 259617.000     10.000    41.2634     0.0000   -53.3204   -13.6973    -1.8681     2.8890    20.6309    41.2644     0.6338    14.6339    14.6332     0.0007     1.5585     1.7204     1.0000     6.000
      8    -0.0000     1.0002    -0.0260     10.165    202.000 259617.000     10.000    41.2634     0.0000   -53.1551   -13.6973    -1.8935     2.8930    20.6309    41.2644     0.6338    14.6339    14.6332     0.0007     1.5595     1.7312     1.0000     6.000
      9    -0.0000     1.0001    -0.0240     10.249    188.000 259617.000     10.000    41.2634     0.0000   -52.9897   -13.6944    -1.8968     2.8904    20.6309    41.2644     0.6337    14.6339    14.6332     0.0007     1.5595     1.7336     1.0000     6.000
     10     0.0005     1.0002    -0.0220     10.268    195.000 259617.000     10.000    41.2634     0.0000   -52.8243   -13.6934    -1.9209     2.8959    20.6309    41.2644     0.6336    14.6339    14.6332     0.0007     1.5591     1.7318     1.0000     6.000
     11     0.0000     1.0000    -0.0200     10.289    231.000 259617.000     10.000    41.2634     0.0000   -52.6590   -13.6904    -1.9018     2.8889    20.6309    41.2644     0.6335    14.6339    14.6332     0.0007     1.5592     1.7365     1.0000     6.000
     12    -0.0002     1.0001    -0.0180     10.245    271.000 259617.000     10.000    41.2634     0.0000   -52.4937   -13.6904    -1.8915     2.8862    20.6309    41.2644     0.6335    14.6339    14.6332     0.0007     1.5589     1.7227     1.0000     6.000
     13    -0.0003     1.0003    -0.0160     10.258    423.000 259617.000     10.000    41.2634     0.0000   -52.3285   -13.6924    -1.8844     2.8849    20.6309    41.2644     0.6336    14.6339    14.6332     0.0007     1.5599     1.7296     1.0000     6.000
     14    -0.0001     1.0002    -0.0140     10.244    758.000 259617.000     10.000    41.2634     0.0000   -52.1632   -13.6894    -1.8906     2.8923    20.6309    41.2644     0.6334    14.6339    14.6332     0.0007     1.5596     1.7331     1.0000     6.000
     15     0.0001     1.0004    -0.0120     10.243    770.000 259617.000     10.000    41.2634     0.0000   -51.9980   -13.6914    -1.8992     2.8948    20.6309    41.2644     0.6335    14.6339    14.6332     0.0007     1.5592     1.7288     1.0000     6.000
     16    -0.0000     1.0002    -0.0100     10.254    860.000 259617.000     10.000    41.2634     0.0000   -51.8329   -13.6885    -1.8940     2.8949    20.6309    41.2644     0.6334    14.6339    14.6332     0.0007     1.5591     1.7297     1.0000     6.000
     17     0.0005     1.0003    -0.0080     10.239   2062.000 259617.000     10.000    41.2634     0.0000   -51.6678   -13.6894    -1.9228     2.8973    20.6309    41.2644     0.6334    14.6339    14.6332     0.0007     1.5598     1.7301     1.0000     6.000
     18     0.0005     1.0003    -0.0060     10.277   8358.000 259617.000     10.000    41.2634     0.0000   -51.5027   -13.6894    -1.9209     2.8963    20.6309    41.2644     0.6334    14.6339    14.6332     0.0007     1.5599     1.7332     1.0000     6.000
     19     0.0001     1.0001    -0.0040     10.233  19637.000 259617.000     10.000    41.2634     0.0000   -51.3377   -13.6865    -1.8982     2.8960    20.6309    41.2644     0.6333    14.6339    14.6332     0.0007     1.5588     1.7264     1.0000     6.000
     20     0.0003     1.0003    -0.0020     10.264  36334.000 259617.000     10.000    41.2634     0.0000   -51.1728   -13.6885    -1.9111     2.8948    20.6309    41.2644     0.6334    14.6339    14.6332     0.0007     1.5592     1.7274     1.0000     6.000
     21     0.0000     1.0002     0.0000     10.228  44396.000 259617.000     10.000    41.2634     0.0000   -51.0079   -13.6865    -1.8981     2.8924    20.6309    41.2644     0.6333    14.6339    14.6332     0.0007     1.5595     1.7347     1.0000     6.000
     22    -0.0006     1.0004     0.0020     10.253  30138.000 259617.000     10.000    41.2634     0.0000   -50.8430   -13.6904    -1.8637     2.8929    20.6309    41.2644     0.6335    14.6339    14.6332     0.0007     1.5590     1.7347     1.0000     6.000
     23    -0.0000     1.0001     0.0040     10.219  15827.000 259617.000     10.000    41.2634     0.0000   -50.6782   -13.6865    -1.8960     2.8914    20.6309    41.2644     0.6333    14.6339    14.6332     0.0007     1.5600     1.7348     1.0000     6.000
     24    -0.0002     1.0003     0.0060     10.243  12581.000 259617.000     10.000    41.2634     0.0000   -50.5135   -13.6885    -1.8892     2.8899    20.6309    41.2644     0.6334    14.6339    14.6332     0.0007     1.5584     1.7207     1.0000     6.000
     25    -0.0001     1.0002     0.0080     10.246   7372.000 259617.000     10.000    41.2634     0.0000   -50.3488   -13.6875    -1.8916     2.8925    20.6309    41.2644     0.6333    14.6339    14.6332     0.0007     1.5591     1.7341     1.0000     6.000
     26     0.0002     1.0002     0.0100     10.244   1891.000 259617.000     10.000    41.2634     0.0000   -50.1842   -13.6885    -1.9064     2.8910    20.6309    41.2644     0.6334    14.6339    14.6332     0.0007     1.5586     1.7242     1.0000     6.000
     27    -0.0001     1.0004     0.0120     10.249    676.000 259617.000     10.000    41.2634     0.0000   -50.0197   -13.6924    -1.8901     2.8901    20.6309    41.2644     0.6336    14.6339    14.6332     0.0007     1.5587     1.7321     1.0000     6.000
     28     0.0003     1.0002     0.0140     10.267    378.000 259617.000     10.000    41.2634     0.0000   -49.8553   -13.6904    -1.9127     2.8917    20.6309    41.2644     0.6335    14.6339    14.6332     0.0007     1.5592     1.7306     1.0000     6.000
     29    -0.0001     1.0004     0.0160     10.265    373.000 259617.000     10.000    41.2634     0.0000   -49.6909   -13.6934    -1.8936     2.8923    20.6309    41.2644     0.6336    14.6339    14.6332     0.0007     1.5586     1.7317     1.0000     6.000
     30    -0.0001     1.0002     0.0180     10.273    262.000 259617.000     10.000    41.2634     0.0000   -49.5266   -13.6914    -1.8943     2.8885    20.6309    41.2644     0.6335    14.6339    14.6332     0.0007     1.5586     1.7288     1.0000     6.000
     31     0.0001     1.0003     0.0200     10.226    217.000 259617.000     10.000    41.2634     0.0000   -49.3624   -13.6944    -1.9046     2.8918    20.6309    41.2644     0.6337    14.6339    14.6332     0.0007     1.5591     1.7285     1.0000     6.000
     32     0.0001     1.0002     0.0220     10.260    211.000 259617.000     10.000    41.2634     0.0000   -49.1983   -13.6934    -1.8976     2.8957    20.6309    41.2644     0.6336    14.6339    14.6332     0.0007     1.5586     1.7281     1.0000     6.000
     33    -0.0001     1.0003     0.0240     10.259    182.000 259617.000     10.000    41.2634     0.0000   -49.0342   -13.6963    -1.8901     2.8940    20.6309    41.2644     0.6337    14.6339    14.6332     0.0007     1.5581     1.7193     1.0000     6.000
     34     0.0000     1.0002     0.0260     10.241    205.000 259617.000     10.000    41.2634     0.0000   -48.8703   -13.6973    -1.8925     2.8976    20.6309    41.2644     0.6338    14.6339    14.6332     0.0007     1.5589     1.7363     1.0000     6.000
     35     0.0000     1.0001     0.0280     10.244    184.000 259617.000     10.000    41.2634     0.0000   -48.7064   -13.6963    -1.8964     2.8934    20.6309    41.2644     0.6337    14.6339    14.6332     0.0007     1.5587     1.7282     1.0000     6.000
     36    -0.0007     0.9999     0.0300     10.226    168.000 259617.000     10.000    41.2634     0.0000   -48.5427   -13.6953    -1.8524     2.8958    20.6309    41.2644     0.6337    14.6339    14.6332     0.0007     1.5586     1.7300     1.0000     6.000
     37     0.0001     0.9997     0.0320     10.256    138.000 259617.000     10.000    41.2634     0.0000   -48.3790   -13.6953    -1.8936     2.8988    20.6309    41.2644     0.6337    14.6339    14.6332     0.0007     1.5578     1.7238     1.0000     6.000
     38    -0.0008     0.9996     0.0340     10.243    152.000 259617.000     10.000    41.2634     0.0000   -48.2154   -13.6953    -1.8488     2.8959    20.6309    41.2644     0.6337    14.6339    14.6332     0.0007     1.5580     1.7254     1.0000     6.000
     39    -0.0010     0.9995     0.0359     10.248    166.000 259617.000     10.000    41.2634     0.0000   -48.0520   -13.6953    -1.8343     2.8976    20.6309    41.2644     0.6337    14.6339    14.6332     0.0007     1.5579     1.7229     1.0000     6.000
     40    -0.0002     0.9993     0.0379     10.227    138.000 259617.000     10.000    41.2634     0.0000   -47.8886   -13.6953    -1.8911     2.8861    20.6309    41.2644     0.6337    14.6339    14.6332     0.0007     1.5581     1.7242     1.0000     6.000
     41    -0.0001     0.9999     0.0400     10.215    166.000 259617.000     10.000    41.2634     0.0000   -47.7253   -13.7062    -1.8912     2.8911    20.6309    41.2644     0.6342    14.6339    14.6332     0.0007     1.5581     1.7250     1.0000     6.000
     42    -0.0007     0.9998     0.0420     10.246    127.000 259617.000     10.000    41.2634     0.0000   -47.5622   -13.7062    -1.8569     2.8914    20.6309    41.2644     0.6342    14.6339    14.6332     0.0007     1.5579     1.7190     1.0000     6.000
     43    -0.0000     0.9996     0.0439     10.238    146.000 259617.000     10.000    41.2634     0.0000   -47.3992   -13.7062    -1.8957     2.8900    20.6309    41.2644     0.6342    14.6339    14.6332     0.0007     1.5582     1.7263     1.0000     6.000
     44    -0.0001     0.9994     0.0459     10.210    128.000 259617.000     10.000    41.2634     0.0000   -47.2363   -13.7062    -1.8928     2.8873    20.6309    41.2644     0.6342    14.6339    14.6332     0.0007     1.5580     1.7233     1.0000     6.000
     45    -0.0000     1.0000     0.0480     10.269    148.000 259617.000     10.000    41.2634     0.0000   -47.0735   -13.7170    -1.8958     2.8898    20.6309    41.2644     0.6347    14.6339    14.6332     0.0007     1.5580     1.7262     1.0000     6.000
     46     0.0001     0.9998     0.0500     10.248    140.000 259617.000     10.000    41.2634     0.0000   -46.9108   -13.7170    -1.9015     2.8918    20.6309    41.2644     0.6347    14.6339    14.6332     0.0007     1.5576     1.7211     1.0000     6.000
     47    -0.0012     0.9996     0.0519     10.266    152.000 259617.000     10.000    41.2634     0.0000   -46.7483   -13.7170    -1.8351     2.8901    20.6309    41.2644     0.6347    14.6339    14.6332     0.0007     1.5575     1.7298     1.0000     6.000
     48    -0.0001     0.9994     0.0539     10.257    129.000 259617.000     10.000    41.2634     0.0000   -46.5858   -13.7170    -1.8930     2.8899    20.6309    41.2644     0.6347    14.6339    14.6332     0.0007     1.5582     1.7298     1.0000     6.000
     49     0.0001     1.0000     0.0560     10.319    111.000 259617.000     10.000    41.2634     0.0000   -46.4236   -13.7288    -1.9014     2.8936    20.6309    41.2644     0.6352    14.6339    14.6332     0.0007     1.5577     1.7293     1.0000     6.000
     50    -0.0000     0.9998     0.0580     10.275    147.000 259617.000     10.000    41.2634     0.0000   -46.2614   -13.7288    -1.8984     2.8880    20.6309    41.2644     0.6352    14.6339    14.6332     0.0007     1.5574     1.7189     1.0000     6.000
     51    -0.0000     0.9995     0.0599     10.245    155.000 259617.000     10.000    41.2634     0.0000   -46.0994   -13.7288    -1.8939     2.8932    20.6309    41.2644     0.6352    14.6339    14.6332     0.0007     1.5574     1.7214     1.0000     6.000
     52    -0.0016     1.0000     0.0620     10.235    173.000 259617.000     10.000    41.2634     0.0000   -45.9375   -13.7387    -1.8078     2.8945    20.6309    41.2644     0.6357    14.6339    14.6332     0.0007     1.5576     1.7200     1.0000     6.000
     53    -0.0012     0.9997     0.0640     10.256    122.000 259617.000     10.000    41.2634     0.0000   -45.7757   -13.7387    -1.8250     2.8990    20.6309    41.2644     0.6357    14.6339    14.6332     0.0007     1.5573     1.7243     1.0000     6.000
     54    -0.0001     0.9995     0.0659     10.184    129.000 259617.000     10.000    41.2634     0.0000   -45.6141   -13.7387    -1.8914     2.8922    20.6309    41.2644     0.6357    14.6339    14.6332     0.0007     1.5576     1.7263     1.0000     6.000
     55    -0.0008     1.0000     0.0680     10.207    129.000 259617.000     10.000    41.2634     0.0000   -45.4527   -13.7505    -1.8527     2.8931    20.6309    41.2644     0.6362    14.6339    14.6332     0.0007     1.5574     1.7235     1.0000     6.000
     56     0.0001     0.9997     0.0700     10.237    141.000 259617.000     10.000    41.2634     0.0000   -45.2914   -13.7505    -1.8996     2.8922    20.6309    41.2644     0.6362    14.6339    14.6332     0.0007     1.5583     1.7306     1.0000     6.000
     57     0.0001     0.9995     0.0719     10.216    153.000 259617.000     10.000    41.2634     0.0000   -45.1302   -13.7505    -1.8986     2.8934    20.6309    41.2644     0.6362    14.6339    14.6332     0.0007     1.5576     1.7166     1.0000     6.000
     58     0.0001     1.0001     0.0740     10.214    140.000 259617.000     10.000    41.2634     0.0000   -44.9692   -13.7633    -1.9013     2.8926    20.6309    41.2644     0.6368    14.6339    14.6332     0.0007     1.5574     1.7264     1.0000     6.000
     59    -0.0002     0.9998     0.0760     10.251    105.000 259617.000     10.000    41.2634     0.0000   -44.8083   -13.7633    -1.8897     2.8894    20.6309    41.2644     0.6368    14.6339    14.6332     0.0007     1.5570     1.7180     1.0000     6.000
     60     0.0000     0.9995     0.0779     10.252    148.000 259617.000     10.000    41.2634     0.0000   -44.6476   -13.7633    -1.8947     2.8946    20.6309    41.2644     0.6368    14.6339    14.6332     0.0007     1.5577     1.7242     1.0000     6.000
     61    -0.0005     1.0000     0.0800     10.218    147.000 259617.000     10.000    41.2634     0.0000   -44.4871   -13.7751    -1.8687     2.8911    20.6309    41.2644     0.6374    14.6339    14.6332     0.0007     1.5570     1.7203     1.0000     6.000
     62     0.0000     0.9997     0.0819     10.258    140.000 259617.000     10.000    41.2634     0.0000   -44.3267   -13.7751    -1.8995     2.8890    20.6309    41.2644     0.6374    14.6339    14.6332     0.0007     1.5573     1.7262     1.0000     6.000
     63    -0.0002     0.9993     0.0839     10.218    141.000 259617.000     10.000    41.2634     0.0000   -44.1665   -13.7751    -1.8961     2.8808    20.6309    41.2644     0.6374    14.6339    14.6332     0.0007     1.5581     1.7322     1.0000     6.000
     64    -0.0001     1.0000     0.0860     10.245    139.000 259617.000     10.000    41.2634     0.0000   -44.0064   -13.7898    -1.8925     2.8892    20.6309    41.2644     0.6380    14.6339    14.6332     0.0007     1.5570     1.7265     1.0000     6.000
     65    -0.0000     0.9997     0.0879     10.259    120.000 259617.000     10.000    41.2634     0.0000   -43.8466   -13.7898    -1.9017     2.8817    20.6309    41.2644     0.6380    14.6339    14.6332     0.0007     1.5575     1.7270     1.0000     6.000
     66    -0.0002     0.9993     0.0899     10.231    133.000 259617.000     10.000    41.2634     0.0000   -43.6869   -13.7898    -1.8924     2.8864    20.6309    41.2644     0.6380    14.6339    14.6332     0.0007     1.5575     1.7225     1.0000     6.000
     67    -0.0001     0.9999     0.0920     10.243    149.000 259617.000     10.000    41.2634     0.0000   -43.5273   -13.8036    -1.8945     2.8907    20.6309    41.2644     0.6387    14.6339    14.6332     0.0007     1.5584     1.7271     1.0000     6.000
     68    -0.0012     0.9996     0.0939     10.205    141.000 259617.000     10.000    41.2634     0.0000   -43.3680   -13.8036    -1.8366     2.8900    20.6309    41.2644     0.6387    14.6339    14.6332     0.0007     1.5570     1.7263     1.0000     6.000
     69    -0.0011     1.0000     0.0960     10.251    134.000 259617.000     10.000    41.2634     0.0000   -43.2088   -13.8144    -1.8393     2.8909    20.6309    41.2644     0.6392    14.6339    14.6332     0.0007     1.5573     1.7242     1.0000     6.000
     70    -0.0013     0.9996     0.0979     10.226    120.000 259617.000     10.000    41.2634     0.0000   -43.0498   -13.8144    -1.8257     2.8943    20.6309    41.2644     0.6392    14.6339    14.6332     0.0007     1.5577     1.7215     1.0000     6.000
     71    -0.0001     1.0000     0.1000     10.232    116.000 259617.000     10.000    41.2634     0.0000   -42.8910   -13.8263    -1.8967     2.8863    20.6309    41.2644     0.6397    14.6339    14.6332     0.0007     1.5579     1.7285     1.0000     6.000
     72    -0.0014     0.9996     0.1019     10.249    128.000 259617.000     10.000    41.2634     0.0000   -42.7324   -13.8263    -1.8286     2.8866    20.6309    41.2644     0.6397    14.6339    14.6332     0.0007     1.5573     1.7246     1.0000     6.000
     73    -0.0016     1.0000     0.1040     10.218    144.000 259617.000     10.000    41.2634     0.0000   -42.5739   -13.8371    -1.8193     2.8871    20.6309    41.2644     0.6402    14.6339    14.6332     0.0007     1.5574     1.7264     1.0000     6.000
     74    -0.0019     0.9996     0.1059     10.225    149.000 259617.000     10.000    41.2634     0.0000   -42.4157   -13.8371    -1.8050     2.8856    20.6309    41.2644     0.6402    14.6339    14.6332     0.0007     1.5574     1.7232     1.0000     6.000
     75    -0.0001     1.0000     0.1080     10.266    155.000 259617.000     10.000    41.2634     0.0000   -42.2577   -13.8499    -1.8982     2.8821    20.6309    41.2644     0.6408    14.6339    14.6332     0.0007     1.5570     1.7219     1.0000     6.000
     76     0.0000     0.9996     0.1099     10.225    156.000 259617.000     10.000    41.2634     0.0000   -42.0998   -13.8499    -1.8946     2.8965    20.6309    41.2644     0.6408    14.6339    14.6332     0.0007     1.5571     1.7229     1.0000     6.000
     77    -0.0000     1.0000     0.1120     10.267    163.000 259617.000     10.000    41.2634     0.0000   -41.9421   -13.8617    -1.8944     2.8931    20.6309    41.2644     0.6414    14.6339    14.6332     0.0007     1.5575     1.7299     1.0000     6.000
     78    -0.0014     0.9995     0.1139     10.209    126.000 259617.000     10.000    41.2634     0.0000   -41.7847   -13.8617    -1.8279     2.8923    20.6309    41.2644     0.6414    14.6339    14.6332     0.0007     1.5569     1.7156     1.0000     6.000
     79    -0.0000     1.0000     0.1160     10.245    161.000 259617.000     10.000    41.2634     0.0000   -41.6274   -13.8745    -1.8922     2.8960    20.6309    41.2644     0.6419    14.6339    14.6332     0.0007     1.5575     1.7263     1.0000     6.000
     80    -0.0001     0.9995     0.1179     10.247    146.000 259617.000     10.000    41.2634     0.0000   -41.4704   -13.8745    -1.8890     2.8933    20.6309    41.2644     0.6419    14.6339    14.6332     0.0007     1.5572     1.7204     1.0000     6.000
     81     0.0001     1.0000     0.1200     10.240    137.000 259617.000     10.000    41.2634     0.0000   -41.3135   -13.8883    -1.8999     2.8953    20.6309    41.2644     0.6426    14.6339    14.6332     0.0007     1.5576     1.7311     1.0000     6.000
     82    -0.0001     0.9996     0.1219     10.209    159.000 259617.000     10.000    41.2634     0.0000   -41.1569   -13.8883    -1.8963     2.8852    20.6309    41.2644     0.6426    14.6339    14.6332     0.0007     1.5579     1.7253     1.0000     6.000
     83    -0.0001     1.0000     0.1240     10.230    151.000 259617.000     10.000    41.2634     0.0000   -41.0005   -13.9011    -1.8929     2.8909    20.6309    41.2644     0.6432    14.6339    14.6332     0.0007     1.5585     1.7372     1.0000     6.000
     84    -0.0015     0.9995     0.1259     10.266    147.000 259617.000     10.000    41.2634     0.0000   -40.8443   -13.9011    -1.8271     2.8880    20.6309    41.2644     0.6432    14.6339    14.6332     0.0007     1.5575     1.7253     1.0000     6.000
     85    -0.0001     1.0001     0.1280     10.246    124.000 259617.000     10.000    41.2634     0.0000   -40.6883   -13.9168    -1.8936     2.8860    20.6309    41.2644     0.6439    14.6339    14.6332     0.0007     1.5577     1.7248     1.0000     6.000
     86    -0.0000     0.9996     0.1299     10.243    138.000 259617.000     10.000    41.2634     0.0000   -40.5325   -13.9168    -1.8915     2.8955    20.6309    41.2644     0.6439    14.6339    14.6332     0.0007     1.5579     1.7294     1.0000     6.000
     87    -0.0004     1.0000     0.1320     10.235    145.000 259617.000     10.000    41.2634     0.0000   -40.3769   -13.9296    -1.8731     2.8940    20.6309    41.2644     0.6445    14.6339    14.6332     0.0007     1.5579     1.7273     1.0000     6.000
     88    -0.0001     0.9994     0.1339     10.218    140.000 259617.000     10.000    41.2634     0.0000   -40.2216   -13.9296    -1.8968     2.8854    20.6309    41.2644     0.6445    14.6339    14.6332     0.0007     1.5571     1.7252     1.0000     6.000
     89    -0.0000     1.0000     0.1360     10.214    160.000 259617.000     10.000    41.2634     0.0000   -40.0665   -13.9453    -1.8933     2.8951    20.6309    41.2644     0.6452    14.6339    14.6332     0.0007     1.5580     1.7232     1.0000     6.000
     90     0.0000     0.9995     0.1379     10.274    135.000 259617.000     10.000    41.2634     0.0000   -39.9116   -13.9453    -1.8961     2.8938    20.6309    41.2644     0.6452    14.6339    14.6332     0.0007     1.5580     1.7275     1.0000     6.000
     91    -0.0012     1.0000     0.1400     10.235    145.000 259617.000     10.000    41.2634     0.0000   -39.7570   -13.9601    -1.8379     2.8891    20.6309    41.2644     0.6459    14.6339    14.6332     0.0007     1.5576     1.7237     1.0000     6.000
     92     0.0002     0.9994     0.1419     10.282    151.000 259617.000     10.000    41.2634     0.0000   -39.6025   -13.9601    -1.9039     2.8955    20.6309    41.2644     0.6459    14.6339    14.6332     0.0007     1.5575     1.7222     1.0000     6.000
     93    -0.0009     1.0000     0.1440     10.232    133.000 259617.000     10.000    41.2634     0.0000   -39.4483   -13.9768    -1.8554     2.8859    20.6309    41.2644     0.6467    14.6339    14.6332     0.0007     1.5571     1.7262     1.0000     6.000
     94    -0.0001     0.9995     0.1459     10.191    135.000 259617.000     10.000    41.2634     0.0000   -39.2944   -13.9768    -1.8952     2.8862    20.6309    41.2644     0.6467    14.6339    14.6332     0.0007     1.5577     1.7275     1.0000     6.000
     95    -0.0002     1.0000     0.1480     10.252    136.000 259617.000     10.000    41.2634     0.0000   -39.1406   -13.9926    -1.8896     2.8866    20.6309    41.2644     0.6474    14.6339    14.6332     0.0007     1.5572     1.7250     1.0000     6.000
     96    -0.0001     0.9994     0.1499     10.215    129.000 259617.000     10.000    41.2634     0.0000   -38.9872   -13.9926    -1.8902     2.8912    20.6309    41.2644     0.6474    14.6339    14.6332     0.0007     1.5573     1.7247     1.0000     6.000
     97    -0.0019     1.0001     0.1520     10.229    124.000 259617.000     10.000    41.2634     0.0000   -38.8339   -14.0103    -1.8051     2.8904    20.6309    41.2644     0.6482    14.6339    14.6332     0.0007     1.5573     1.7232     1.0000     6.000
     98    -0.0007     0.9995     0.1538     10.257    152.000 259617.000     10.000    41.2634     0.0000   -38.6809   -14.0103    -1.9010     2.8295    20.6309    41.2644     0.6482    14.6339    14.6332     0.0007     1.5571     1.7221     1.0000     6.000
     99    -0.0019     0.9999     0.1560     10.273    159.000 259617.000     10.000    41.2634     0.0000   -38.5282   -14.0251    -1.8054     2.8893    20.6309    41.2644     0.6489    14.6339    14.6332     0.0007     1.5570     1.7183     1.0000     6.000
    100    -0.0001     1.0000     0.1580     10.302    143.000 259617.000     10.000    41.2634     0.0000   -38.3756   -14.0349    -1.8931     2.8901    20.6309    41.2644     0.6493    14.6339    14.6332     0.0007     1.5572     1.7245     1.0000     6.000
    101     0.0002     0.9994     0.1598     10.255    154.000 259617.000     10.000    41.2634     0.0000   -38.2234   -14.0349    -1.9046     2.8906    20.6309    41.2644     0.6493    14.6339    14.6332     0.0007     1.5576     1.7281     1.0000     6.000
    102     0.0000     1.0001     0.1620     10.280    137.000 259617.000     10.000    41.2634     0.0000   -38.0714   -14.0546    -1.8996     2.8883    20.6309    41.2644     0.6502    14.6339    14.6332     0.0007     1.5575     1.7286     1.0000     6.000
    103    -0.0001     0.9995     0.1639     10.251    154.000 259617.000     10.000    41.2634     0.0000   -37.9196   -14.0546    -1.8937     2.8890    20.6309    41.2644     0.6502    14.6339    14.6332     0.0007     1.5579     1.7304     1.0000     6.000
    104    -0.0024     0.9999     0.1660     10.243    150.000 259617.000     10.000    41.2634     0.0000   -37.7681   -14.0703    -1.7882     2.8851    20.6309    41.2644     0.6510    14.6339    14.6332     0.0007     1.5574     1.7240     1.0000     6.000
    105     0.0001     1.0000     0.1680     10.244    134.000 259617.000     10.000    41.2634     0.0000   -37.6168   -14.0802    -1.8948     2.9031    20.6309    41.2644     0.6514    14.6339    14.6332     0.0007     1.5573     1.7239     1.0000     6.000
    106    -0.0001     0.9993     0.1698     10.271    161.000 259617.000     10.000    41.2634     0.0000   -37.4658   -14.0802    -1.8891     2.8917    20.6309    41.2644     0.6514    14.6339    14.6332     0.0007     1.5573     1.7246     1.0000     6.000
    107    -0.0003     1.0002     0.1720     10.230    165.000 259617.000     10.000    41.2634     0.0000   -37.3151   -14.1018    -1.8845     2.8884    20.6309    41.2644     0.6524    14.6339    14.6332     0.0007     1.5572     1.7245     1.0000     6.000
    108    -0.0004     0.9995     0.1739     10.253    144.000 259617.000     10.000    41.2634     0.0000   -37.1646   -14.1018    -1.8785     2.8885    20.6309    41.2644     0.6524    14.6339    14.6332     0.0007     1.5576     1.7182     1.0000     6.000
    109     0.0001     0.9999     0.1760     10.249    133.000 259617.000     10.000    41.2634     0.0000   -37.0144   -14.1166    -1.8988     2.8915    20.6309    41.2644     0.6531    14.6339    14.6332     0.0007     1.5581     1.7263     1.0000     6.000
    110    -0.0004     0.9999     0.1780     10.253    166.000 259617.000     10.000    41.2634     0.0000   -36.8644   -14.1274    -1.8761     2.8913    20.6309    41.2644     0.6536    14.6339    14.6332     0.0007     1.5574     1.7213     1.0000     6.000
    111     0.0001     1.0000     0.1800     10.237    152.000 259617.000     10.000    41.2634     0.0000   -36.7148   -14.1383    -1.8985     2.8952    20.6309    41.2644     0.6541    14.6339    14.6332     0.0007     1.5574     1.7226     1.0000     6.000
    112    -0.0011     0.9993     0.1818     10.271    140.000 259617.000     10.000    41.2634     0.0000   -36.5653   -14.1383    -1.8466     2.8893    20.6309    41.2644     0.6541    14.6339    14.6332     0.0007     1.5571     1.7192     1.0000     6.000
    113     0.0000     1.0001     0.1840     10.278    154.000 259617.000     10.000    41.2634     0.0000   -36.4162   -14.1599    -1.8960     2.8917    20.6309    41.2644     0.6551    14.6339    14.6332     0.0007     1.5575     1.7259     1.0000     6.000
    114    -0.0013     0.9994     0.1858     10.233    157.000 259617.000     10.000    41.2634     0.0000   -36.2673   -14.1599    -1.8396     2.8868    20.6309    41.2644     0.6551    14.6339    14.6332     0.0007     1.5571     1.7240     1.0000     6.000
    115    -0.0000     0.9999     0.1880     10.250    150.000 259617.000     10.000    41.2634     0.0000   -36.1187   -14.1776    -1.8914     2.8967    20.6309    41.2644     0.6559    14.6339    14.6332     0.0007     1.5581     1.7349     1.0000     6.000
    116     0.0001     1.0000     0.1900     10.240    165.000 259617.000     10.000    41.2634     0.0000   -35.9704   -14.1885    -1.8997     2.8936    20.6309    41.2644     0.6564    14.6339    14.6332     0.0007     1.5578     1.7286     1.0000     6.000
    117    -0.0001     1.0000     0.1920     10.279    162.000 259617.000     10.000    41.2634     0.0000   -35.8223   -14.2003    -1.8913     2.8892    20.6309    41.2644     0.6569    14.6339    14.6332     0.0007     1.5578     1.7199     1.0000     6.000
    118    -0.0016     0.9993     0.1938     10.251    172.000 259617.000     10.000    41.2634     0.0000   -35.6745   -14.2003    -1.8848     2.7791    20.6309    41.2644     0.6569    14.6339    14.6332     0.0007     1.5577     1.7308     1.0000     6.000
    119    -0.0022     1.0001     0.1960     10.212    161.000 259617.000     10.000    41.2634     0.0000   -35.5270   -14.2229    -1.7957     2.8902    20.6309    41.2644     0.6580    14.6339    14.6332     0.0007     1.5572     1.7216     1.0000     6.000
    120    -0.0014     0.9994     0.1978     10.249    165.000 259617.000     10.000    41.2634     0.0000   -35.3798   -14.2229    -1.8334     2.8882    20.6309    41.2644     0.6580    14.6339    14.6332     0.0007     1.5576     1.7282     1.0000     6.000
    121     0.0001     0.9999     0.2000     10.249    141.000 259617.000     10.000    41.2634     0.0000   -35.2329   -14.2416    -1.8974     2.8935    20.6309    41.2644     0.6588    14.6339    14.6332     0.0007     1.5572     1.7235     1.0000     6.000
    122    -0.0001     1.0000     0.2020     10.245    167.000 259617.000     10.000    41.2634     0.0000   -35.0862   -14.2534    -1.8921     2.8928    20.6309    41.2644     0.6594    14.6339    14.6332     0.0007     1.5575     1.7285     1.0000     6.000
    123    -0.0012     1.0000     0.2040     10.221    153.000 259617.000     10.000    41.2634     0.0000   -34.9398   -14.2642    -1.8424     2.8862    20.6309    41.2644     0.6599    14.6339    14.6332     0.0007     1.5581     1.7276     1.0000     6.000
    124     0.0001     1.0000     0.2060     10.226    130.000 259617.000     10.000    41.2634     0.0000   -34.7938   -14.2761    -1.8992     2.8924    20.6309    41.2644     0.6604    14.6339    14.6332     0.0007     1.5576     1.7256     1.0000     6.000
    125    -0.0015     1.0000     0.2080     10.272    173.000 259617.000     10.000    41.2634     0.0000   -34.6480   -14.2869    -1.8291     2.8888    20.6309    41.2644     0.6609    14.6339    14.6332     0.0007     1.5575     1.7247     1.0000     6.000
    126    -0.0000     1.0000     0.2100     10.264    156.000 259617.000     10.000    41.2634     0.0000   -34.5025   -14.2987    -1.8941     2.8907    20.6309    41.2644     0.6615    14.6339    14.6332     0.0007     1.5575     1.7247     1.0000     6.000
    127     0.0001     1.0000     0.2120     10.239    143.000 259617.000     10.000    41.2634     0.0000   -34.3572   -14.3095    -1.9024     2.8915    20.6309    41.2644     0.6620    14.6339    14.6332     0.0007     1.5575     1.7226     1.0000     6.000
    128    -0.0006     1.0000     0.2140     10.249    176.000 259617.000     10.000    41.2634     0.0000   -34.2123   -14.3213    -1.8720     2.8887    20.6309    41.2644     0.6625    14.6339    14.6332     0.0007     1.5576     1.7210     1.0000     6.000
    129    -0.0000     1.0001     0.2160     10.251    167.000 259617.000     10.000    41.2634     0.0000   -34.0677   -14.3341    -1.8968     2.8871    20.6309    41.2644     0.6631    14.6339    14.6332     0.0007     1.5580     1.7309     1.0000     6.000
    130    -0.0000     1.0000     0.2180     10.260    163.000 259617.000     10.000    41.2634     0.0000   -33.9234   -14.3450    -1.8923     2.8946    20.6309    41.2644     0.6636    14.6339    14.6332     0.0007     1.5579     1.7271     1.0000     6.000
    131    -0.0007     1.0000     0.2200     10.264    155.000 259617.000     10.000    41.2634     0.0000   -33.7793   -14.3568    -1.8655     2.8932    20.6309    41.2644     0.6641    14.6339    14.6332     0.0007     1.5574     1.7243     1.0000     6.000
    132     0.0000     1.0000     0.2220     10.223    164.000 259617.000     10.000    41.2634     0.0000   -33.6356   -14.3696    -1.8932     2.8979    20.6309    41.2644     0.6647    14.6339    14.6332     0.0007     1.5581     1.7266     1.0000     6.000
    133    -0.0015     1.0000     0.2240     10.227    142.000 259617.000     10.000    41.2634     0.0000   -33.4921   -14.3804    -1.8277     2.8909    20.6309    41.2644     0.6652    14.6339    14.6332     0.0007     1.5585     1.7257     1.0000     6.000
    134     0.0001     1.0000     0.2260     10.220    183.000 259617.000     10.000    41.2634     0.0000   -33.3490   -14.3932    -1.8978     2.8937    20.6309    41.2644     0.6658    14.6339    14.6332     0.0007     1.5575     1.7269     1.0000     6.000
    135    -0.0012     1.0000     0.2280     10.258    165.000 259617.000     10.000    41.2634     0.0000   -33.2062   -14.4060    -1.8468     2.8832    20.6309    41.2644     0.6664    14.6339    14.6332     0.0007     1.5577     1.7243     1.0000     6.000
    136    -0.0001     1.0000     0.2300     10.289    155.000 259617.000     10.000    41.2634     0.0000   -33.0636   -14.4178    -1.8913     2.8881    20.6309    41.2644     0.6670    14.6339    14.6332     0.0007     1.5575     1.7216     1.0000     6.000
    137    -0.0012     1.0000     0.2320     10.283    146.000 259617.000     10.000    41.2634     0.0000   -32.9214   -14.4306    -1.8456     2.8865    20.6309    41.2644     0.6675    14.6339    14.6332     0.0007     1.5575     1.7245     1.0000     6.000
    138     0.0000     1.0000     0.2340     10.271    152.000 259617.000     10.000    41.2634     0.0000   -32.7795   -14.4434    -1.8971     2.8885    20.6309    41.2644     0.6681    14.6339    14.6332     0.0007     1.5578     1.7273     1.0000     6.000
    139    -0.0009     1.0000     0.2360     10.287    159.000 259617.000     10.000    41.2634     0.0000   -32.6378   -14.4552    -1.8570     2.8919    20.6309    41.2644     0.6687    14.6339    14.6332     0.0007     1.5574     1.7218     1.0000     6.000
    140    -0.0000     1.0000     0.2380     10.262    159.000 259617.000     10.000    41.2634     0.0000   -32.4965   -14.4690    -1.8926     2.8940    20.6309    41.2644     0.6693    14.6339    14.6332     0.0007     1.5574     1.7265     1.0000     6.000
    141     0.0000     1.0000     0.2400     10.252    153.000 259617.000     10.000    41.2634     0.0000   -32.3555   -14.4808    -1.8963     2.8914    20.6309    41.2644     0.6699    14.6339    14.6332     0.0007     1.5582     1.7271     1.0000     6.000
    142    -0.0027     1.0000     0.2420     10.236    153.000 259617.000     10.000    41.2634     0.0000   -32.2148   -14.4946    -1.7785     2.8908    20.6309    41.2644     0.6705    14.6339    14.6332     0.0007     1.5576     1.7190     1.0000     6.000
    143    -0.0001     1.0000     0.2440     10.248    189.000 259617.000     10.000    41.2634     0.0000   -32.0744   -14.5074    -1.8924     2.8904    20.6309    41.2644     0.6711    14.6339    14.6332     0.0007     1.5570     1.7223     1.0000     6.000
    144    -0.0012     1.0000     0.2460     10.228    179.000 259617.000     10.000    41.2634     0.0000   -31.9344   -14.5201    -1.8458     2.8917    20.6309    41.2644     0.6717    14.6339    14.6332     0.0007     1.5572     1.7195     1.0000     6.000
    145    -0.0001     1.0001     0.2480     10.253    196.000 259617.000     10.000    41.2634     0.0000   -31.7946   -14.5349    -1.8903     2.8976    20.6309    41.2644     0.6723    14.6339    14.6332     0.0007     1.5576     1.7311     1.0000     6.000
    146     0.0003     1.0000     0.2500     10.202    187.000 259617.000     10.000    41.2634     0.0000   -31.6551   -14.5467    -1.9109     2.8886    20.6309    41.2644     0.6729    14.6339    14.6332     0.0007     1.5577     1.7234     1.0000     6.000
    147     0.0000     1.0000     0.2520     10.243    184.000 259617.000     10.000    41.2634     0.0000   -31.5160   -14.5605    -1.8953     2.8923    20.6309    41.2644     0.6735    14.6339    14.6332     0.0007     1.5584     1.7259     1.0000     6.000
    148     0.0001     1.0001     0.2540     10.273    184.000 259617.000     10.000    41.2634     0.0000   -31.3772   -14.5753    -1.8999     2.8904    20.6309    41.2644     0.6742    14.6339    14.6332     0.0007     1.5583     1.7251     1.0000     6.000
    149     0.0001     0.9999     0.2560     10.225    164.000 259617.000     10.000    41.2634     0.0000   -31.2387   -14.5871    -1.9021     2.8898    20.6309    41.2644     0.6747    14.6339    14.6332     0.0007     1.5579     1.7208     1.0000     6.000
    150    -0.0012     1.0000     0.2580     10.235    147.000 259617.000     10.000    41.2634     0.0000   -31.1005   -14.6018    -1.8451     2.8880    20.6309    41.2644     0.6754    14.6339    14.6332     0.0007     1.5588     1.7236     1.0000     6.000
    151    -0.0002     1.0000     0.2600     10.228    173.000 259617.000     10.000    41.2634     0.0000   -30.9627   -14.6156    -1.8902     2.8874    20.6309    41.2644     0.6761    14.6339    14.6332     0.0007     1.5573     1.7209     1.0000     6.000
    152    -0.0025     1.0000     0.2620     10.235    172.000 259617.000     10.000    41.2634     0.0000   -30.8251   -14.6294    -1.7927     2.8854    20.6309    41.2644     0.6767    14.6339    14.6332     0.0007     1.5582     1.7223     1.0000     6.000
    153    -0.0001     1.0000     0.2640     10.269    169.000 259617.000     10.000    41.2634     0.0000   -30.6879   -14.6442    -1.8906     2.8937    20.6309    41.2644     0.6774    14.6339    14.6332     0.0007     1.5579     1.7214     1.0000     6.000
    154    -0.0013     1.0000     0.2660     10.259    170.000 259617.000     10.000    41.2634     0.0000   -30.5510   -14.6570    -1.8417     2.8917    20.6309    41.2644     0.6780    14.6339    14.6332     0.0007     1.5574     1.7235     1.0000     6.000
    155     0.0001     1.0001     0.2680     10.230    162.000 259617.000     10.000    41.2634     0.0000   -30.4144   -14.6727    -1.8969     2.8958    20.6309    41.2644     0.6787    14.6339    14.6332     0.0007     1.5581     1.7225     1.0000     6.000
    156    -0.0000     1.0000     0.2700     10.242    178.000 259617.000     10.000    41.2634     0.0000   -30.2782   -14.6855    -1.8957     2.8893    20.6309    41.2644     0.6793    14.6339    14.6332     0.0007     1.5584     1.7273     1.0000     6.000
    157    -0.0031     1.0001     0.2720     10.253    162.000 259617.000     10.000    41.2634     0.0000   -30.1422   -14.7013    -1.7645     2.8906    20.6309    41.2644     0.6800    14.6339    14.6332     0.0007     1.5578     1.7263     1.0000     6.000
    158    -0.0021     1.0000     0.2740     10.261    159.000 259617.000     10.000    41.2634     0.0000   -30.0066   -14.7150    -1.8090     2.8864    20.6309    41.2644     0.6806    14.6339    14.6332     0.0007     1.5584     1.7264     1.0000     6.000
    159    -0.0001     1.0000     0.2760     10.243    200.000 259617.000     10.000    41.2634     0.0000   -29.8714   -14.7298    -1.8923     2.8925    20.6309    41.2644     0.6813    14.6339    14.6332     0.0007     1.5582     1.7321     1.0000     6.000
    160     0.0000     1.0000     0.2780     10.259    173.000 259617.000     10.000    41.2634     0.0000   -29.7364   -14.7436    -1.8959     2.8918    20.6309    41.2644     0.6819    14.6339    14.6332     0.0007     1.5579     1.7247     1.0000     6.000
    161    -0.0008     1.0000     0.2800     10.271    183.000 259617.000     10.000    41.2634     0.0000   -29.6018   -14.7593    -1.8624     2.8942    20.6309    41.2644     0.6827    14.6339    14.6332     0.0007     1.5585     1.7276     1.0000     6.000
    162    -0.0003     1.0000     0.2820     10.238    161.000 259617.000     10.000    41.2634     0.0000   -29.4675   -14.7731    -1.8801     2.8975    20.6309    41.2644     0.6833    14.6339    14.6332     0.0007     1.5581     1.7258     1.0000     6.000
    163    -0.0001     1.0001     0.2840     10.271    190.000 259617.000     10.000    41.2634     0.0000   -29.3335   -14.7898    -1.8932     2.8903    20.6309    41.2644     0.6841    14.6339    14.6332     0.0007     1.5582     1.7277     1.0000     6.000
    164    -0.0011     0.9999     0.2860     10.279    162.000 259617.000     10.000    41.2634     0.0000   -29.1999   -14.8026    -1.8480     2.8927    20.6309    41.2644     0.6847    14.6339    14.6332     0.0007     1.5581     1.7297     1.0000     6.000
    165     0.0001     1.0000     0.2880     10.282    156.000 259617.000     10.000    41.2634     0.0000   -29.0666   -14.8194    -1.8969     2.8952    20.6309    41.2644     0.6854    14.6339    14.6332     0.0007     1.5579     1.7290     1.0000     6.000
    166     0.0003     0.9999     0.2900     10.231    176.000 259617.000     10.000    41.2634     0.0000   -28.9336   -14.8331    -1.9117     2.8863    20.6309    41.2644     0.6861    14.6339    14.6332     0.0007     1.5592     1.7270     1.0000     6.000
    167    -0.0001     1.0000     0.2920     10.276    157.000 259617.000     10.000    41.2634     0.0000   -28.8010   -14.8499    -1.8923     2.8908    20.6309    41.2644     0.6868    14.6339    14.6332     0.0007     1.5587     1.7311     1.0000     6.000
    168    -0.0016     0.9999     0.2940     10.284    174.000 259617.000     10.000    41.2634     0.0000   -28.6687   -14.8637    -1.8328     2.8884    20.6309    41.2644     0.6875    14.6339    14.6332     0.0007     1.5580     1.7223     1.0000     6.000
    169     0.0000     1.0001     0.2960     10.280    163.000 259617.000     10.000    41.2634     0.0000   -28.5367   -14.8814    -1.8980     2.8881    20.6309    41.2644     0.6883    14.6339    14.6332     0.0007     1.5577     1.7268     1.0000     6.000
    170     0.0001     1.0000     0.2980     10.225    186.000 259617.000     10.000    41.2634     0.0000   -28.4051   -14.8951    -1.9001     2.8913    20.6309    41.2644     0.6889    14.6339    14.6332     0.0007     1.5573     1.7195     1.0000     6.000
    171    -0.0030     1.0000     0.3000     10.220    163.000 259617.000     10.000    41.2634     0.0000   -28.2738   -14.9109    -1.7748     2.8856    20.6309    41.2644     0.6896    14.6339    14.6332     0.0007     1.5577     1.7233     1.0000     6.000
    172    -0.0000     1.0000     0.3020     10.221    154.000 259617.000     10.000    41.2634     0.0000   -28.1428   -14.9276    -1.8974     2.8844    20.6309    41.2644     0.6904    14.6339    14.6332     0.0007     1.5584     1.7263     1.0000     6.000
    173    -0.0001     1.0000     0.3040     10.243    186.000 259617.000     10.000    41.2634     0.0000   -28.0122   -14.9424    -1.8932     2.8916    20.6309    41.2644     0.6911    14.6339    14.6332     0.0007     1.5575     1.7257     1.0000     6.000
    174    -0.0012     1.0001     0.3060     10.254    173.000 259617.000     10.000    41.2634     0.0000   -27.8819   -14.9601    -1.8454     2.8927    20.6309    41.2644     0.6919    14.6339    14.6332     0.0007     1.5581     1.7267     1.0000     6.000
    175     0.0001     1.0000     0.3080     10.232    168.000 259617.000     10.000    41.2634     0.0000   -27.7519   -14.9749    -1.8985     2.8905    20.6309    41.2644     0.6926    14.6339    14.6332     0.0007     1.5579     1.7290     1.0000     6.000
    176     0.0000     1.0000     0.3100     10.273    174.000 259617.000     10.000    41.2634     0.0000   -27.6223   -14.9916    -1.8945     2.8941    20.6309    41.2644     0.6933    14.6339    14.6332     0.0007     1.5586     1.7282     1.0000     6.000
    177     0.0010     0.9999     0.3119     10.254    153.000 259617.000     10.000    41.2634     0.0000   -27.4930   -15.0054    -1.9373     2.8916    20.6309    41.2644     0.6940    14.6339    14.6332     0.0007     1.5574     1.7217     1.0000     6.000
    178     0.0017     1.0000     0.3140     10.207    187.000 259617.000     10.000    41.2634     0.0000   -27.3641   -15.0241    -1.9631     2.8928    20.6309    41.2644     0.6948    14.6339    14.6332     0.0007     1.5586     1.7292     1.0000     6.000
    179    -0.0001     1.0000     0.3160     10.230    149.000 259617.000     10.000    41.2634     0.0000   -27.2355   -15.0398    -1.8922     2.8911    20.6309    41.2644     0.6956    14.6339    14.6332     0.0007     1.5579     1.7241     1.0000     6.000
    180     0.0001     1.0000     0.3180     10.270    173.000 259617.000     10.000    41.2634     0.0000   -27.1072   -15.0566    -1.8998     2.8918    20.6309    41.2644     0.6963    14.6339    14.6332     0.0007     1.5586     1.7330     1.0000     6.000
    181     0.0001     0.9999     0.3200     10.291    163.000 259617.000     10.000    41.2634     0.0000   -26.9793   -15.0713    -1.8975     2.8942    20.6309    41.2644     0.6970    14.6339    14.6332     0.0007     1.5587     1.7288     1.0000     6.000
    182    -0.0000     1.0000     0.3220     10.232    197.000 259617.000     10.000    41.2634     0.0000   -26.8517   -15.0900    -1.8930     2.8944    20.6309    41.2644     0.6979    14.6339    14.6332     0.0007     1.5577     1.7242     1.0000     6.000
    183     0.0003     1.0000     0.3240     10.251    163.000 259617.000     10.000    41.2634     0.0000   -26.7244   -15.1058    -1.9061     2.8923    20.6309    41.2644     0.6986    14.6339    14.6332     0.0007     1.5581     1.7241     1.0000     6.000
    184    -0.0001     1.0000     0.3260     10.234    183.000 259617.000     10.000    41.2634     0.0000   -26.5975   -15.1235    -1.8901     2.8930    20.6309    41.2644     0.6994    14.6339    14.6332     0.0007     1.5580     1.7246     1.0000     6.000
    185     0.0016     1.0000     0.3280     10.197    160.000 259617.000     10.000    41.2634     0.0000   -26.4710   -15.1392    -1.9564     2.8933    20.6309    41.2644     0.7001    14.6339    14.6332     0.0007     1.5579     1.7234     1.0000     6.000
    186     0.0001     1.0000     0.3300     10.276    163.000 259617.000     10.000    41.2634     0.0000   -26.3448   -15.1570    -1.8980     2.8997    20.6309    41.2644     0.7010    14.6339    14.6332     0.0007     1.5589     1.7346     1.0000     6.000
    187    -0.0001     1.0000     0.3320     10.268    184.000 259617.000     10.000    41.2634     0.0000   -26.2189   -15.1737    -1.8914     2.8959    20.6309    41.2644     0.7017    14.6339    14.6332     0.0007     1.5578     1.7243     1.0000     6.000
    188    -0.0001     1.0000     0.3340     10.250    171.000 259617.000     10.000    41.2634     0.0000   -26.0933   -15.1914    -1.8920     2.8929    20.6309    41.2644     0.7025    14.6339    14.6332     0.0007     1.5586     1.7255     1.0000     6.000
    189    -0.0021     1.0000     0.3360     10.213    160.000 259617.000     10.000    41.2634     0.0000   -25.9681   -15.2081    -1.8090     2.8967    20.6309    41.2644     0.7033    14.6339    14.6332     0.0007     1.5579     1.7240     1.0000     6.000
    190    -0.0001     1.0000     0.3380     10.224    160.000 259617.000     10.000    41.2634     0.0000   -25.8433   -15.2259    -1.8928     2.8856    20.6309    41.2644     0.7041    14.6339    14.6332     0.0007     1.5598     1.7401     1.0000     6.000
    191    -0.0009     1.0000     0.3400     10.266    179.000 259617.000     10.000    41.2634     0.0000   -25.7188   -15.2426    -1.8641     2.8803    20.6309    41.2644     0.7049    14.6339    14.6332     0.0007     1.5586     1.7274     1.0000     6.000
    192    -0.0029     1.0000     0.3420     10.251    177.000 259617.000     10.000    41.2634     0.0000   -25.5946   -15.2603    -1.7846     2.8850    20.6309    41.2644     0.7057    14.6339    14.6332     0.0007     1.5579     1.7255     1.0000     6.000
    193     0.0000     1.0000     0.3440     10.249    162.000 259617.000     10.000    41.2634     0.0000   -25.4708   -15.2780    -1.8973     2.8855    20.6309    41.2644     0.7065    14.6339    14.6332     0.0007     1.5585     1.7289     1.0000     6.000
    194    -0.0001     1.0000     0.3460     10.276    164.000 259617.000     10.000    41.2634     0.0000   -25.3473   -15.2948    -1.8900     2.8928    20.6309    41.2644     0.7073    14.6339    14.6332     0.0007     1.5584     1.7337     1.0000     6.000
    195     0.0011     1.0000     0.3480     10.270    171.000 259617.000     10.000    41.2634     0.0000   -25.2242   -15.3135    -1.9361     2.8948    20.6309    41.2644     0.7081    14.6339    14.6332     0.0007     1.5584     1.7270     1.0000     6.000
    196    -0.0001     1.0000     0.3500     10.255    157.000 259617.000     10.000    41.2634     0.0000   -25.1014   -15.3302    -1.8928     2.8884    20.6309    41.2644     0.7089    14.6339    14.6332     0.0007     1.5590     1.7253     1.0000     6.000
# Sum of Counts = 211274
# Center of Mass = 0.023342+/-0.000171
# Full Width Half-Maximum = 0.142684+/-0.000553
# 1:56:59 PM  3/13/2016   scan completed.
