# scan = 223
# date = 3/12/2016
# time = 5:56:18 PM
# proposal = IPTS-15083.1
# experiment = Evolution of the magnetic structure with applied field in multiferroic (ND4)2[FeCl5(D2O)]
# experiment_number = 718
# command = scan h 0 k 1 l -0.04 0.35 0.002 preset mcu 10
# builtin_command = scan h 0 k 1 l -0.04 0.35 0.002 preset mcu 10
# users = Wei Tian, Jaime Fernandez-Baca, Huibo Cao
# local_contact = Wei Tian
# scan_title = scan (0 1 L), 1.5K, 1 T
# monochromator = PG002
# analyzer = Pg002
# sense = +-+
# collimation = 40-40-40-60
# samplename = (ND4)2[FeCl5(D2O)]
# sampletype = crystal
# samplemosaic = 30.000000
# latticeconstants = 13.659912,9.922999,6.896657,90.000000,90.000000,90.000000
# ubmatrix = -0.002420,0.072257,0.100960,-0.003695,0.069997,-0.104056,-0.073074,-0.005932,0.001919
# mode = 0
# plane_normal = 0.033051,0.050478,0.998178
# ubconf = UB11Mar2016_12747PM.ini
# preset_type = normal 
# preset_channel = mcu
# preset_value = 10.000000
# def_x = l
# def_y = detector
# col_headers = 
#   Pt.          h          k          l       time   detector    monitor        mcu         m2      mag_e         s1         s2        sgl        sgu         a1         a2          q         ei         ef          e    coldtip    tsample       temp persistent_field
      1     0.0000     1.0004    -0.0400     10.298    160.000 259617.000     10.000    41.2634     0.0000   -54.3076   -13.7121    -1.8984     2.8930    20.6309    41.2634     0.6345    14.6339    14.6339    -0.0000     1.4976     1.6056     1.0000     1.000
      2     0.0001     1.0008    -0.0380     10.290    166.000 259617.000     10.000    41.2634     0.0000   -54.1421   -13.7160    -1.9054     2.8881    20.6309    41.2634     0.6347    14.6339    14.6339    -0.0000     1.4961     1.5972     1.0000     1.000
      3     0.0000     1.0006    -0.0360     10.317    156.000 259617.000     10.000    41.2634     0.0000   -53.9767   -13.7111    -1.9051     2.8862    20.6309    41.2634     0.6344    14.6339    14.6339    -0.0000     1.4950     1.5927     1.0000     1.000
      4    -0.0001     1.0005    -0.0340     10.288    126.000 259617.000     10.000    41.2634     0.0000   -53.8112   -13.7072    -1.8988     2.8844    20.6309    41.2634     0.6342    14.6339    14.6339    -0.0000     1.4931     1.5936     1.0000     1.000
      5     0.0001     1.0004    -0.0320     10.249    162.000 259617.000     10.000    41.2634     0.0000   -53.6458   -13.7042    -1.8976     2.8957    20.6309    41.2634     0.6341    14.6339    14.6339    -0.0000     1.4946     1.6022     1.0000     1.000
      6     0.0001     1.0006    -0.0300     10.296    156.000 259617.000     10.000    41.2634     0.0000   -53.4803   -13.7052    -1.9033     2.8931    20.6309    41.2634     0.6342    14.6339    14.6339    -0.0000     1.4931     1.5902     1.0000     1.000
      7     0.0009     1.0006    -0.0280     10.278    161.000 259617.000     10.000    41.2634     0.0000   -53.3149   -13.7032    -1.9435     2.8972    20.6309    41.2634     0.6341    14.6339    14.6339    -0.0000     1.4928     1.5914     1.0000     1.000
      8     0.0002     1.0005    -0.0260     10.319    159.000 259617.000     10.000    41.2634     0.0000   -53.1495   -13.7003    -1.9059     2.8968    20.6309    41.2634     0.6339    14.6339    14.6339    -0.0000     1.4915     1.5951     1.0000     1.000
      9    -0.0001     1.0004    -0.0240     10.297    187.000 259617.000     10.000    41.2634     0.0000   -52.9842   -13.6973    -1.8911     2.8905    20.6309    41.2634     0.6338    14.6339    14.6339    -0.0000     1.4925     1.5983     1.0000     1.000
     10    -0.0006     1.0004    -0.0220     10.307    171.000 259617.000     10.000    41.2634     0.0000   -52.8188   -13.6963    -1.8629     2.8880    20.6309    41.2634     0.6338    14.6339    14.6339    -0.0000     1.4924     1.5898     1.0000     1.000
     11    -0.0001     1.0002    -0.0200     10.265    179.000 259617.000     10.000    41.2634     0.0000   -52.6535   -13.6924    -1.8904     2.8949    20.6309    41.2634     0.6336    14.6339    14.6339    -0.0000     1.4915     1.5901     1.0000     1.000
     12     0.0006     1.0003    -0.0180     10.287    198.000 259617.000     10.000    41.2634     0.0000   -52.4882   -13.6924    -1.9352     2.8908    20.6309    41.2634     0.6336    14.6339    14.6339    -0.0000     1.4918     1.5922     1.0000     1.000
     13    -0.0001     1.0003    -0.0160     10.264    200.000 259617.000     10.000    41.2634     0.0000   -52.3229   -13.6914    -1.8949     2.8897    20.6309    41.2634     0.6335    14.6339    14.6339    -0.0000     1.4908     1.5906     1.0000     1.000
     14    -0.0000     1.0002    -0.0140     10.308    210.000 259617.000     10.000    41.2634     0.0000   -52.1577   -13.6894    -1.8952     2.8915    20.6309    41.2634     0.6334    14.6339    14.6339    -0.0000     1.4910     1.5922     1.0000     1.000
     15    -0.0000     1.0003    -0.0120     10.288    221.000 259617.000     10.000    41.2634     0.0000   -51.9925   -13.6904    -1.8989     2.8883    20.6309    41.2634     0.6335    14.6339    14.6339    -0.0000     1.4906     1.5907     1.0000     1.000
     16    -0.0006     1.0003    -0.0100     10.300    247.000 259617.000     10.000    41.2634     0.0000   -51.8274   -13.6904    -1.8619     2.8890    20.6309    41.2634     0.6335    14.6339    14.6339    -0.0000     1.4909     1.5849     1.0000     1.000
     17     0.0000     1.0001    -0.0080     10.311    357.000 259617.000     10.000    41.2634     0.0000   -51.6623   -13.6865    -1.8935     2.8979    20.6309    41.2634     0.6333    14.6339    14.6339    -0.0000     1.4908     1.5929     1.0000     1.000
     18    -0.0003     1.0004    -0.0060     10.332    577.000 259617.000     10.000    41.2634     0.0000   -51.4972   -13.6904    -1.8735     2.8995    20.6309    41.2634     0.6335    14.6339    14.6339    -0.0000     1.4915     1.5961     1.0000     1.000
     19     0.0003     1.0004    -0.0040     10.299   1130.000 259617.000     10.000    41.2634     0.0000   -51.3322   -13.6894    -1.9045     2.9022    20.6309    41.2634     0.6334    14.6339    14.6339    -0.0000     1.4900     1.5900     1.0000     1.000
     20    -0.0001     1.0003    -0.0020     10.243   1857.000 259617.000     10.000    41.2634     0.0000   -51.1672   -13.6885    -1.8851     2.8974    20.6309    41.2634     0.6334    14.6339    14.6339    -0.0000     1.4906     1.5881     1.0000     1.000
     21     0.0000     1.0002     0.0000     10.222   2247.000 259617.000     10.000    41.2634     0.0000   -51.0023   -13.6865    -1.8938     2.8972    20.6309    41.2634     0.6333    14.6339    14.6339    -0.0000     1.4918     1.6001     1.0000     1.000
     22     0.0006     1.0001     0.0020     10.262   1921.000 259617.000     10.000    41.2634     0.0000   -50.8375   -13.6855    -1.9225     2.9003    20.6309    41.2634     0.6333    14.6339    14.6339    -0.0000     1.4908     1.5928     1.0000     1.000
     23     0.0001     1.0001     0.0040     10.280   1272.000 259617.000     10.000    41.2634     0.0000   -50.6727   -13.6855    -1.8915     2.9010    20.6309    41.2634     0.6333    14.6339    14.6339    -0.0000     1.4906     1.5919     1.0000     1.000
     24    -0.0002     1.0000     0.0060     10.263    796.000 259617.000     10.000    41.2634     0.0000   -50.5080   -13.6845    -1.8792     2.8987    20.6309    41.2634     0.6332    14.6339    14.6339    -0.0000     1.4892     1.5883     1.0000     1.000
     25     0.0001     1.0000     0.0080     10.261    502.000 259617.000     10.000    41.2634     0.0000   -50.3433   -13.6845    -1.8951     2.9019    20.6309    41.2634     0.6332    14.6339    14.6339    -0.0000     1.4899     1.5939     1.0000     1.000
     26     0.0000     0.9999     0.0100     10.277    361.000 259617.000     10.000    41.2634     0.0000   -50.1787   -13.6845    -1.8920     2.8986    20.6309    41.2634     0.6332    14.6339    14.6339    -0.0000     1.4891     1.5887     1.0000     1.000
     27    -0.0005     0.9999     0.0120     10.255    267.000 259617.000     10.000    41.2634     0.0000   -50.0142   -13.6845    -1.8599     2.8981    20.6309    41.2634     0.6332    14.6339    14.6339    -0.0000     1.4889     1.5859     1.0000     1.000
     28     0.0005     0.9998     0.0140     10.296    226.000 259617.000     10.000    41.2634     0.0000   -49.8498   -13.6845    -1.9197     2.8984    20.6309    41.2634     0.6332    14.6339    14.6339    -0.0000     1.4893     1.5939     1.0000     1.000
     29     0.0001     0.9998     0.0160     10.277    206.000 259617.000     10.000    41.2634     0.0000   -49.6854   -13.6845    -1.8976     2.8989    20.6309    41.2634     0.6332    14.6339    14.6339    -0.0000     1.4889     1.5956     1.0000     1.000
     30    -0.0012     0.9997     0.0180     10.274    187.000 259617.000     10.000    41.2634     0.0000   -49.5211   -13.6845    -1.8243     2.8974    20.6309    41.2634     0.6332    14.6339    14.6339    -0.0000     1.4882     1.5863     1.0000     1.000
     31    -0.0023     0.9996     0.0200     10.279    178.000 259617.000     10.000    41.2634     0.0000   -49.3569   -13.6845    -1.7656     2.8911    20.6309    41.2634     0.6332    14.6339    14.6339    -0.0000     1.4884     1.5829     1.0000     1.000
     32     0.0001     0.9995     0.0220     10.253    171.000 259617.000     10.000    41.2634     0.0000   -49.1928   -13.6845    -1.8924     2.9026    20.6309    41.2634     0.6332    14.6339    14.6339    -0.0000     1.4873     1.5855     1.0000     1.000
     33    -0.0006     0.9994     0.0239     10.253    149.000 259617.000     10.000    41.2634     0.0000   -49.0287   -13.6845    -1.8539     2.9014    20.6309    41.2634     0.6332    14.6339    14.6339    -0.0000     1.4884     1.5821     1.0000     1.000
     34     0.0000     0.9993     0.0259     10.252    167.000 259617.000     10.000    41.2634     0.0000   -48.8648   -13.6845    -1.8979     2.8912    20.6309    41.2634     0.6332    14.6339    14.6339    -0.0000     1.4874     1.5917     1.0000     1.000
     35    -0.0015     1.0000     0.0280     10.266    183.000 259617.000     10.000    41.2634     0.0000   -48.7009   -13.6953    -1.8188     2.8860    20.6309    41.2634     0.6337    14.6339    14.6339    -0.0000     1.4878     1.5819     1.0000     1.000
     36    -0.0001     0.9999     0.0300     10.275    138.000 259617.000     10.000    41.2634     0.0000   -48.5371   -13.6953    -1.8925     2.8931    20.6309    41.2634     0.6337    14.6339    14.6339    -0.0000     1.4875     1.5827     1.0000     1.000
     37    -0.0004     0.9997     0.0320     10.267    147.000 259617.000     10.000    41.2634     0.0000   -48.3735   -13.6953    -1.8782     2.8908    20.6309    41.2634     0.6337    14.6339    14.6339    -0.0000     1.4874     1.5838     1.0000     1.000
     38    -0.0004     0.9996     0.0339     10.285    139.000 259617.000     10.000    41.2634     0.0000   -48.2099   -13.6953    -1.8954     2.8688    20.6309    41.2634     0.6337    14.6339    14.6339    -0.0000     1.4877     1.5842     1.0000     1.000
     39    -0.0000     0.9995     0.0359     10.284    151.000 259617.000     10.000    41.2634     0.0000   -48.0464   -13.6953    -1.8924     2.8940    20.6309    41.2634     0.6337    14.6339    14.6339    -0.0000     1.4875     1.5864     1.0000     1.000
     40    -0.0009     0.9993     0.0379     10.297    137.000 259617.000     10.000    41.2634     0.0000   -47.8831   -13.6953    -1.8450     2.8936    20.6309    41.2634     0.6337    14.6339    14.6339    -0.0000     1.4869     1.5854     1.0000     1.000
     41     0.0001     1.0000     0.0400     10.313    160.000 259617.000     10.000    41.2634     0.0000   -47.7198   -13.7072    -1.8958     2.8988    20.6309    41.2634     0.6342    14.6339    14.6339    -0.0000     1.4870     1.5864     1.0000     1.000
     42    -0.0017     0.9998     0.0420     10.269    148.000 259617.000     10.000    41.2634     0.0000   -47.5567   -13.7072    -1.7966     2.8979    20.6309    41.2634     0.6342    14.6339    14.6339    -0.0000     1.4862     1.5777     1.0000     1.000
     43     0.0002     0.9997     0.0440     10.267    155.000 259617.000     10.000    41.2634     0.0000   -47.3937   -13.7072    -1.8976     2.9058    20.6309    41.2634     0.6342    14.6339    14.6339    -0.0000     1.4868     1.5865     1.0000     1.000
     44     0.0001     0.9995     0.0459     10.269    146.000 259617.000     10.000    41.2634     0.0000   -47.2308   -13.7072    -1.8924     2.9032    20.6309    41.2634     0.6342    14.6339    14.6339    -0.0000     1.4861     1.5870     1.0000     1.000
     45    -0.0017     0.9993     0.0479     10.292    150.000 259617.000     10.000    41.2634     0.0000   -47.0680   -13.7072    -1.8019     2.8974    20.6309    41.2634     0.6342    14.6339    14.6339    -0.0000     1.4864     1.5847     1.0000     1.000
     46     0.0002     1.0000     0.0500     10.305    185.000 259617.000     10.000    41.2634     0.0000   -46.9053   -13.7200    -1.8985     2.8993    20.6309    41.2634     0.6348    14.6339    14.6339    -0.0000     1.4863     1.5855     1.0000     1.000
     47    -0.0004     0.9998     0.0520     10.285    151.000 259617.000     10.000    41.2634     0.0000   -46.7428   -13.7200    -1.8693     2.9001    20.6309    41.2634     0.6348    14.6339    14.6339    -0.0000     1.4865     1.5813     1.0000     1.000
     48    -0.0002     0.9996     0.0539     10.291    177.000 259617.000     10.000    41.2634     0.0000   -46.5803   -13.7200    -1.8941     2.8799    20.6309    41.2634     0.6348    14.6339    14.6339    -0.0000     1.4867     1.5874     1.0000     1.000
     49     0.0001     0.9994     0.0559     10.254    153.000 259617.000     10.000    41.2634     0.0000   -46.4180   -13.7200    -1.8952     2.8980    20.6309    41.2634     0.6348    14.6339    14.6339    -0.0000     1.4868     1.5855     1.0000     1.000
     50    -0.0015     1.0000     0.0580     10.254    147.000 259617.000     10.000    41.2634     0.0000   -46.2559   -13.7318    -1.8186     2.8903    20.6309    41.2634     0.6354    14.6339    14.6339    -0.0000     1.4866     1.5877     1.0000     1.000
     51     0.0001     0.9997     0.0600     10.267    152.000 259617.000     10.000    41.2634     0.0000   -46.0939   -13.7318    -1.9019     2.8922    20.6309    41.2634     0.6354    14.6339    14.6339    -0.0000     1.4858     1.5846     1.0000     1.000
     52    -0.0001     0.9995     0.0619     10.276    164.000 259617.000     10.000    41.2634     0.0000   -45.9320   -13.7318    -1.8899     2.8911    20.6309    41.2634     0.6354    14.6339    14.6339    -0.0000     1.4851     1.5779     1.0000     1.000
     53    -0.0015     0.9999     0.0640     10.296    152.000 259617.000     10.000    41.2634     0.0000   -45.7702   -13.7416    -1.8236     2.8865    20.6309    41.2634     0.6358    14.6339    14.6339    -0.0000     1.4854     1.5839     1.0000     1.000
     54    -0.0000     0.9997     0.0659     10.260    152.000 259617.000     10.000    41.2634     0.0000   -45.6086   -13.7416    -1.8973     2.8889    20.6309    41.2634     0.6358    14.6339    14.6339    -0.0000     1.4836     1.5721     1.0000     1.000
     55    -0.0012     0.9994     0.0679     10.296    148.000 259617.000     10.000    41.2634     0.0000   -45.4472   -13.7416    -1.8367     2.8883    20.6309    41.2634     0.6358    14.6339    14.6339    -0.0000     1.4837     1.5750     1.0000     1.000
     56    -0.0001     1.0001     0.0700     10.298    144.000 259617.000     10.000    41.2634     0.0000   -45.2859   -13.7554    -1.8906     2.8906    20.6309    41.2634     0.6365    14.6339    14.6339    -0.0000     1.4832     1.5789     1.0000     1.000
     57    -0.0009     0.9998     0.0720     10.303    171.000 259617.000     10.000    41.2634     0.0000   -45.1247   -13.7554    -1.8523     2.8848    20.6309    41.2634     0.6365    14.6339    14.6339    -0.0000     1.4827     1.5694     1.0000     1.000
     58     0.0000     0.9995     0.0739     10.279    161.000 259617.000     10.000    41.2634     0.0000   -44.9637   -13.7554    -1.9047     2.8841    20.6309    41.2634     0.6365    14.6339    14.6339    -0.0000     1.4822     1.5694     1.0000     1.000
     59    -0.0002     0.9999     0.0760     10.265    173.000 259617.000     10.000    41.2634     0.0000   -44.8028   -13.7652    -1.8944     2.8828    20.6309    41.2634     0.6369    14.6339    14.6339    -0.0000     1.4823     1.5739     1.0000     1.000
     60    -0.0001     0.9996     0.0779     10.286    162.000 259617.000     10.000    41.2634     0.0000   -44.6421   -13.7652    -1.8956     2.8846    20.6309    41.2634     0.6369    14.6339    14.6339    -0.0000     1.4825     1.5715     1.0000     1.000
     61    -0.0013     0.9993     0.0799     10.304    139.000 259617.000     10.000    41.2634     0.0000   -44.4816   -13.7652    -1.8280     2.8893    20.6309    41.2634     0.6369    14.6339    14.6339    -0.0000     1.4818     1.5720     1.0000     1.000
     62    -0.0000     1.0000     0.0820     10.254    174.000 259617.000     10.000    41.2634     0.0000   -44.3212   -13.7800    -1.8915     2.8950    20.6309    41.2634     0.6376    14.6339    14.6339    -0.0000     1.4817     1.5702     1.0000     1.000
     63    -0.0013     0.9997     0.0839     10.230    157.000 259617.000     10.000    41.2634     0.0000   -44.1610   -13.7800    -1.8265     2.8936    20.6309    41.2634     0.6376    14.6339    14.6339    -0.0000     1.4820     1.5690     1.0000     1.000
     64    -0.0000     0.9994     0.0859     10.295    159.000 259617.000     10.000    41.2634     0.0000   -44.0010   -13.7800    -1.8991     2.8876    20.6309    41.2634     0.6376    14.6339    14.6339    -0.0000     1.4813     1.5729     1.0000     1.000
     65    -0.0008     1.0000     0.0880     10.289    161.000 259617.000     10.000    41.2634     0.0000   -43.8411   -13.7938    -1.8574     2.8871    20.6309    41.2634     0.6382    14.6339    14.6339    -0.0000     1.4817     1.5748     1.0000     1.000
     66    -0.0001     0.9996     0.0899     10.238    192.000 259617.000     10.000    41.2634     0.0000   -43.6814   -13.7938    -1.8936     2.8860    20.6309    41.2634     0.6382    14.6339    14.6339    -0.0000     1.4815     1.5712     1.0000     1.000
     67    -0.0008     1.0000     0.0920     10.250    181.000 259617.000     10.000    41.2634     0.0000   -43.5219   -13.8036    -1.8607     2.8830    20.6309    41.2634     0.6387    14.6339    14.6339    -0.0000     1.4806     1.5709     1.0000     1.000
     68    -0.0002     0.9996     0.0939     10.301    184.000 259617.000     10.000    41.2634     0.0000   -43.3625   -13.8036    -1.8940     2.8817    20.6309    41.2634     0.6387    14.6339    14.6339    -0.0000     1.4816     1.5790     1.0000     1.000
     69    -0.0015     1.0000     0.0960     10.225    154.000 259617.000     10.000    41.2634     0.0000   -43.2033   -13.8154    -1.8250     2.8864    20.6309    41.2634     0.6392    14.6339    14.6339    -0.0000     1.4814     1.5731     1.0000     1.000
     70     0.0000     0.9997     0.0979     10.279    169.000 259617.000     10.000    41.2634     0.0000   -43.0443   -13.8154    -1.9019     2.8871    20.6309    41.2634     0.6392    14.6339    14.6339    -0.0000     1.4814     1.5701     1.0000     1.000
     71    -0.0020     1.0000     0.1000     10.287    171.000 259617.000     10.000    41.2634     0.0000   -42.8855   -13.8253    -1.7994     2.8858    20.6309    41.2634     0.6397    14.6339    14.6339    -0.0000     1.4804     1.5667     1.0000     1.000
     72    -0.0002     0.9996     0.1019     10.293    201.000 259617.000     10.000    41.2634     0.0000   -42.7269   -13.8253    -1.8902     2.8853    20.6309    41.2634     0.6397    14.6339    14.6339    -0.0000     1.4800     1.5723     1.0000     1.000
     73    -0.0012     1.0000     0.1040     10.246    168.000 259617.000     10.000    41.2634     0.0000   -42.5685   -13.8371    -1.8376     2.8878    20.6309    41.2634     0.6402    14.6339    14.6339    -0.0000     1.4802     1.5685     1.0000     1.000
     74    -0.0001     0.9996     0.1059     10.281    171.000 259617.000     10.000    41.2634     0.0000   -42.4102   -13.8371    -1.8950     2.8884    20.6309    41.2634     0.6402    14.6339    14.6339    -0.0000     1.4797     1.5686     1.0000     1.000
     75    -0.0000     1.0000     0.1080     10.270    162.000 259617.000     10.000    41.2634     0.0000   -42.2522   -13.8499    -1.8932     2.8958    20.6309    41.2634     0.6408    14.6339    14.6339    -0.0000     1.4801     1.5717     1.0000     1.000
     76    -0.0017     0.9996     0.1099     10.324    161.000 259617.000     10.000    41.2634     0.0000   -42.0943   -13.8499    -1.8082     2.8949    20.6309    41.2634     0.6408    14.6339    14.6339    -0.0000     1.4797     1.5653     1.0000     1.000
     77    -0.0000     0.9999     0.1120     10.256    163.000 259617.000     10.000    41.2634     0.0000   -41.9367   -13.8607    -1.8950     2.8915    20.6309    41.2634     0.6413    14.6339    14.6339    -0.0000     1.4790     1.5649     1.0000     1.000
     78    -0.0017     0.9995     0.1139     10.269    173.000 259617.000     10.000    41.2634     0.0000   -41.7792   -13.8607    -1.8138     2.8903    20.6309    41.2634     0.6413    14.6339    14.6339    -0.0000     1.4797     1.5696     1.0000     1.000
     79     0.0000     1.0001     0.1160     10.299    211.000 259617.000     10.000    41.2634     0.0000   -41.6220   -13.8755    -1.8971     2.8939    20.6309    41.2634     0.6420    14.6339    14.6339    -0.0000     1.4785     1.5652     1.0000     1.000
     80    -0.0013     0.9996     0.1179     10.284    157.000 259617.000     10.000    41.2634     0.0000   -41.4649   -13.8755    -1.8306     2.8906    20.6309    41.2634     0.6420    14.6339    14.6339    -0.0000     1.4790     1.5626     1.0000     1.000
     81    -0.0017     1.0000     0.1200     10.303    174.000 259617.000     10.000    41.2634     0.0000   -41.3081   -13.8873    -1.8094     2.8918    20.6309    41.2634     0.6425    14.6339    14.6339    -0.0000     1.4791     1.5626     1.0000     1.000
     82    -0.0001     0.9995     0.1219     10.268    165.000 259617.000     10.000    41.2634     0.0000   -41.1515   -13.8873    -1.8917     2.8920    20.6309    41.2634     0.6425    14.6339    14.6339    -0.0000     1.4784     1.5617     1.0000     1.000
     83    -0.0013     1.0000     0.1240     10.277    174.000 259617.000     10.000    41.2634     0.0000   -40.9950   -13.9011    -1.8310     2.8953    20.6309    41.2634     0.6432    14.6339    14.6339    -0.0000     1.4791     1.5725     1.0000     1.000
     84    -0.0000     0.9995     0.1259     10.286    166.000 259617.000     10.000    41.2634     0.0000   -40.8388   -13.9011    -1.8967     2.8876    20.6309    41.2634     0.6432    14.6339    14.6339    -0.0000     1.4783     1.5630     1.0000     1.000
     85     0.0000     1.0001     0.1280     10.293    161.000 259617.000     10.000    41.2634     0.0000   -40.6828   -13.9168    -1.8908     2.9010    20.6309    41.2634     0.6439    14.6339    14.6339    -0.0000     1.4781     1.5609     1.0000     1.000
     86    -0.0011     0.9996     0.1299     10.261    181.000 259617.000     10.000    41.2634     0.0000   -40.5271   -13.9168    -1.8376     2.8973    20.6309    41.2634     0.6439    14.6339    14.6339    -0.0000     1.4790     1.5681     1.0000     1.000
     87     0.0001     1.0000     0.1320     10.291    159.000 259617.000     10.000    41.2634     0.0000   -40.3715   -13.9296    -1.8970     2.8982    20.6309    41.2634     0.6445    14.6339    14.6339    -0.0000     1.4780     1.5633     1.0000     1.000
     88    -0.0004     0.9994     0.1339     10.267    171.000 259617.000     10.000    41.2634     0.0000   -40.2162   -13.9296    -1.8732     2.8963    20.6309    41.2634     0.6445    14.6339    14.6339    -0.0000     1.4776     1.5618     1.0000     1.000
     89    -0.0000     1.0000     0.1360     10.281    181.000 259617.000     10.000    41.2634     0.0000   -40.0611   -13.9444    -1.8963     2.8906    20.6309    41.2634     0.6452    14.6339    14.6339    -0.0000     1.4776     1.5594     1.0000     1.000
     90    -0.0019     0.9994     0.1379     10.276    183.000 259617.000     10.000    41.2634     0.0000   -39.9062   -13.9444    -1.8059     2.8907    20.6309    41.2634     0.6452    14.6339    14.6339    -0.0000     1.4771     1.5612     1.0000     1.000
     91    -0.0001     1.0000     0.1400     10.280    186.000 259617.000     10.000    41.2634     0.0000   -39.7515   -13.9611    -1.8903     2.8967    20.6309    41.2634     0.6459    14.6339    14.6339    -0.0000     1.4776     1.5666     1.0000     1.000
     92    -0.0008     0.9995     0.1419     10.266    197.000 259617.000     10.000    41.2634     0.0000   -39.5971   -13.9611    -1.8589     2.8905    20.6309    41.2634     0.6459    14.6339    14.6339    -0.0000     1.4782     1.5629     1.0000     1.000
     93    -0.0000     1.0000     0.1440     10.261    209.000 259617.000     10.000    41.2634     0.0000   -39.4429   -13.9759    -1.9003     2.8845    20.6309    41.2634     0.6466    14.6339    14.6339    -0.0000     1.4775     1.5595     1.0000     1.000
     94    -0.0006     0.9994     0.1459     10.304    221.000 259617.000     10.000    41.2634     0.0000   -39.2890   -13.9759    -1.8693     2.8851    20.6309    41.2634     0.6466    14.6339    14.6339    -0.0000     1.4782     1.5610     1.0000     1.000
     95     0.0002     1.0000     0.1480     10.312    203.000 259617.000     10.000    41.2634     0.0000   -39.1352   -13.9926    -1.9029     2.8937    20.6309    41.2634     0.6474    14.6339    14.6339    -0.0000     1.4777     1.5647     1.0000     1.000
     96    -0.0016     0.9994     0.1498     10.260    212.000 259617.000     10.000    41.2634     0.0000   -38.9818   -13.9926    -1.8981     2.7669    20.6309    41.2634     0.6474    14.6339    14.6339    -0.0000     1.4783     1.5649     1.0000     1.000
     97     0.0001     1.0000     0.1520     10.249    246.000 259617.000     10.000    41.2634     0.0000   -38.8285   -14.0093    -1.8976     2.8933    20.6309    41.2634     0.6482    14.6339    14.6339    -0.0000     1.4781     1.5709     1.0000     1.000
     98    -0.0023     0.9994     0.1539     10.253    212.000 259617.000     10.000    41.2634     0.0000   -38.6755   -14.0093    -1.7904     2.8883    20.6309    41.2634     0.6482    14.6339    14.6339    -0.0000     1.4785     1.5686     1.0000     1.000
     99    -0.0002     1.0000     0.1560     10.289    214.000 259617.000     10.000    41.2634     0.0000   -38.5228   -14.0261    -1.8881     2.8914    20.6309    41.2634     0.6489    14.6339    14.6339    -0.0000     1.4772     1.5729     1.0000     1.000
    100    -0.0005     0.9994     0.1578     10.358    200.000 259617.000     10.000    41.2634     0.0000   -38.3703   -14.0261    -1.8720     2.8905    20.6309    41.2634     0.6489    14.6339    14.6339    -0.0000     1.4775     1.5602     1.0000     1.000
    101    -0.0002     1.0001     0.1600     10.304    226.000 259617.000     10.000    41.2634     0.0000   -38.2180   -14.0457    -1.8891     2.8868    20.6309    41.2634     0.6498    14.6339    14.6339    -0.0000     1.4776     1.5629     1.0000     1.000
    102    -0.0003     0.9995     0.1619     10.229    204.000 259617.000     10.000    41.2634     0.0000   -38.0660   -14.0457    -1.8881     2.8851    20.6309    41.2634     0.6498    14.6339    14.6339    -0.0000     1.4775     1.5607     1.0000     1.000
    103     0.0001     0.9999     0.1640     10.258    223.000 259617.000     10.000    41.2634     0.0000   -37.9142   -14.0605    -1.8987     2.8929    20.6309    41.2634     0.6505    14.6339    14.6339    -0.0000     1.4773     1.5611     1.0000     1.000
    104    -0.0013     1.0000     0.1660     10.262    201.000 259617.000     10.000    41.2634     0.0000   -37.7627   -14.0703    -1.8327     2.8936    20.6309    41.2634     0.6510    14.6339    14.6339    -0.0000     1.4775     1.5582     1.0000     1.000
    105    -0.0002     0.9993     0.1678     10.333    220.000 259617.000     10.000    41.2634     0.0000   -37.6115   -14.0703    -1.8933     2.8818    20.6309    41.2634     0.6510    14.6339    14.6339    -0.0000     1.4771     1.5612     1.0000     1.000
    106     0.0000     1.0002     0.1700     10.253    238.000 259617.000     10.000    41.2634     0.0000   -37.4605   -14.0920    -1.8978     2.8916    20.6309    41.2634     0.6520    14.6339    14.6339    -0.0000     1.4769     1.5587     1.0000     1.000
    107    -0.0026     0.9995     0.1719     10.264    195.000 259617.000     10.000    41.2634     0.0000   -37.3097   -14.0920    -1.7807     2.8817    20.6309    41.2634     0.6520    14.6339    14.6339    -0.0000     1.4763     1.5582     1.0000     1.000
    108    -0.0029     0.9999     0.1740     10.279    234.000 259617.000     10.000    41.2634     0.0000   -37.1593   -14.1068    -1.7635     2.8841    20.6309    41.2634     0.6526    14.6339    14.6339    -0.0000     1.4762     1.5564     1.0000     1.000
    109    -0.0000     1.0000     0.1760     10.311    253.000 259617.000     10.000    41.2634     0.0000   -37.0090   -14.1186    -1.8953     2.8893    20.6309    41.2634     0.6532    14.6339    14.6339    -0.0000     1.4762     1.5586     1.0000     1.000
    110    -0.0000     0.9993     0.1778     10.266    209.000 259617.000     10.000    41.2634     0.0000   -36.8591   -14.1186    -1.8930     2.8936    20.6309    41.2634     0.6532    14.6339    14.6339    -0.0000     1.4763     1.5572     1.0000     1.000
    111    -0.0017     1.0000     0.1800     10.278    190.000 259617.000     10.000    41.2634     0.0000   -36.7094   -14.1383    -1.8187     2.8912    20.6309    41.2634     0.6541    14.6339    14.6339    -0.0000     1.4764     1.5587     1.0000     1.000
    112    -0.0001     0.9993     0.1818     10.333    210.000 259617.000     10.000    41.2634     0.0000   -36.5600   -14.1383    -1.8894     2.8978    20.6309    41.2634     0.6541    14.6339    14.6339    -0.0000     1.4767     1.5638     1.0000     1.000
    113    -0.0018     1.0001     0.1840     10.269    216.000 259617.000     10.000    41.2634     0.0000   -36.4108   -14.1589    -1.8090     2.8958    20.6309    41.2634     0.6550    14.6339    14.6339    -0.0000     1.4762     1.5559     1.0000     1.000
    114    -0.0002     0.9994     0.1858     10.234    225.000 259617.000     10.000    41.2634     0.0000   -36.2620   -14.1589    -1.8860     2.8947    20.6309    41.2634     0.6550    14.6339    14.6339    -0.0000     1.4762     1.5620     1.0000     1.000
    115    -0.0012     1.0000     0.1880     10.274    249.000 259617.000     10.000    41.2634     0.0000   -36.1134   -14.1786    -1.8377     2.8968    20.6309    41.2634     0.6560    14.6339    14.6339    -0.0000     1.4756     1.5575     1.0000     1.000
    116     0.0001     0.9999     0.1900     10.269    208.000 259617.000     10.000    41.2634     0.0000   -35.9650   -14.1875    -1.9018     2.8862    20.6309    41.2634     0.6564    14.6339    14.6339    -0.0000     1.4756     1.5562     1.0000     1.000
    117    -0.0021     1.0000     0.1920     10.291    238.000 259617.000     10.000    41.2634     0.0000   -35.8170   -14.1993    -1.8045     2.8842    20.6309    41.2634     0.6569    14.6339    14.6339    -0.0000     1.4755     1.5588     1.0000     1.000
    118    -0.0002     1.0000     0.1940     10.308    228.000 259617.000     10.000    41.2634     0.0000   -35.6692   -14.2101    -1.8913     2.8834    20.6309    41.2634     0.6574    14.6339    14.6339    -0.0000     1.4755     1.5568     1.0000     1.000
    119    -0.0001     1.0000     0.1960     10.281    264.000 259617.000     10.000    41.2634     0.0000   -35.5217   -14.2209    -1.8923     2.8885    20.6309    41.2634     0.6579    14.6339    14.6339    -0.0000     1.4753     1.5631     1.0000     1.000
    120    -0.0014     1.0000     0.1980     10.297    281.000 259617.000     10.000    41.2634     0.0000   -35.3745   -14.2318    -1.8341     2.8841    20.6309    41.2634     0.6584    14.6339    14.6339    -0.0000     1.4751     1.5562     1.0000     1.000
    121    -0.0000     1.0000     0.2000     10.327    259.000 259617.000     10.000    41.2634     0.0000   -35.2276   -14.2426    -1.8926     2.8955    20.6309    41.2634     0.6589    14.6339    14.6339    -0.0000     1.4751     1.5555     1.0000     1.000
    122    -0.0014     1.0000     0.2020     10.320    309.000 259617.000     10.000    41.2634     0.0000   -35.0809   -14.2534    -1.8314     2.8964    20.6309    41.2634     0.6594    14.6339    14.6339    -0.0000     1.4752     1.5549     1.0000     1.000
    123    -0.0020     1.0000     0.2040     10.228    310.000 259617.000     10.000    41.2634     0.0000   -34.9345   -14.2652    -1.8024     2.8973    20.6309    41.2634     0.6599    14.6339    14.6339    -0.0000     1.4751     1.5573     1.0000     1.000
    124    -0.0001     1.0000     0.2060     10.269    325.000 259617.000     10.000    41.2634     0.0000   -34.7885   -14.2751    -1.8968     2.8845    20.6309    41.2634     0.6604    14.6339    14.6339    -0.0000     1.4753     1.5598     1.0000     1.000
    125     0.0000     1.0000     0.2080     10.271    382.000 259617.000     10.000    41.2634     0.0000   -34.6427   -14.2869    -1.8925     2.8998    20.6309    41.2634     0.6609    14.6339    14.6339    -0.0000     1.4753     1.5556     1.0000     1.000
    126    -0.0005     1.0000     0.2100     10.256    496.000 259617.000     10.000    41.2634     0.0000   -34.4972   -14.2987    -1.8716     2.8967    20.6309    41.2634     0.6615    14.6339    14.6339    -0.0000     1.4752     1.5561     1.0000     1.000
    127     0.0002     1.0000     0.2120     10.254    667.000 259617.000     10.000    41.2634     0.0000   -34.3520   -14.3095    -1.9015     2.8936    20.6309    41.2634     0.6620    14.6339    14.6339    -0.0000     1.4747     1.5534     1.0000     1.000
    128     0.0002     1.0000     0.2140     10.319    812.000 259617.000     10.000    41.2634     0.0000   -34.2070   -14.3213    -1.9020     2.8951    20.6309    41.2634     0.6625    14.6339    14.6339    -0.0000     1.4744     1.5524     1.0000     1.000
    129     0.0000     1.0000     0.2160     10.275   1110.000 259617.000     10.000    41.2634     0.0000   -34.0624   -14.3331    -1.8956     2.8959    20.6309    41.2634     0.6631    14.6339    14.6339    -0.0000     1.4746     1.5542     1.0000     1.000
    130    -0.0009     1.0000     0.2180     10.293   1572.000 259617.000     10.000    41.2634     0.0000   -33.9181   -14.3450    -1.8552     2.8912    20.6309    41.2634     0.6636    14.6339    14.6339    -0.0000     1.4746     1.5540     1.0000     1.000
    131    -0.0000     1.0000     0.2200     10.281   3134.000 259617.000     10.000    41.2634     0.0000   -33.7741   -14.3568    -1.8921     2.8966    20.6309    41.2634     0.6642    14.6339    14.6339    -0.0000     1.4745     1.5556     1.0000     1.000
    132    -0.0028     1.0000     0.2220     10.303   6213.000 259617.000     10.000    41.2634     0.0000   -33.6303   -14.3696    -1.7715     2.8924    20.6309    41.2634     0.6647    14.6339    14.6339    -0.0000     1.4741     1.5509     1.0000     1.000
    133    -0.0000     1.0000     0.2240     10.324  12568.000 259617.000     10.000    41.2634     0.0000   -33.4869   -14.3804    -1.8941     2.8935    20.6309    41.2634     0.6652    14.6339    14.6339    -0.0000     1.4740     1.5535     1.0000     1.000
    134     0.0000     1.0000     0.2260     10.308  23024.000 259617.000     10.000    41.2634     0.0000   -33.3437   -14.3932    -1.8931     2.8978    20.6309    41.2634     0.6658    14.6339    14.6339    -0.0000     1.4741     1.5520     1.0000     1.000
    135    -0.0012     1.0000     0.2280     10.302  37601.000 259617.000     10.000    41.2634     0.0000   -33.2009   -14.4050    -1.8411     2.8933    20.6309    41.2634     0.6664    14.6339    14.6339    -0.0000     1.4736     1.5503     1.0000     1.000
    136     0.0000     1.0000     0.2300     10.313  39260.000 259617.000     10.000    41.2634     0.0000   -33.0584   -14.4178    -1.8979     2.8890    20.6309    41.2634     0.6670    14.6339    14.6339    -0.0000     1.4735     1.5517     1.0000     1.000
    137    -0.0014     1.0000     0.2320     10.301  28538.000 259617.000     10.000    41.2634     0.0000   -32.9161   -14.4306    -1.8361     2.8919    20.6309    41.2634     0.6676    14.6339    14.6339    -0.0000     1.4735     1.5563     1.0000     1.000
    138    -0.0001     1.0000     0.2340     10.337  16455.000 259617.000     10.000    41.2634     0.0000   -32.7742   -14.4424    -1.8893     2.8932    20.6309    41.2634     0.6681    14.6339    14.6339    -0.0000     1.4734     1.5517     1.0000     1.000
    139    -0.0015     1.0000     0.2360     10.281  10054.000 259617.000     10.000    41.2634     0.0000   -32.6326   -14.4562    -1.8297     2.8914    20.6309    41.2634     0.6687    14.6339    14.6339    -0.0000     1.4735     1.5520     1.0000     1.000
    140    -0.0000     1.0000     0.2380     10.271   6317.000 259617.000     10.000    41.2634     0.0000   -32.4913   -14.4680    -1.8935     2.8918    20.6309    41.2634     0.6693    14.6339    14.6339    -0.0000     1.4729     1.5510     1.0000     1.000
    141    -0.0002     1.0000     0.2400     10.269   3495.000 259617.000     10.000    41.2634     0.0000   -32.3503   -14.4818    -1.8916     2.8862    20.6309    41.2634     0.6699    14.6339    14.6339    -0.0000     1.4729     1.5481     1.0000     1.000
    142    -0.0013     1.0000     0.2420     10.311   1959.000 259617.000     10.000    41.2634     0.0000   -32.2096   -14.4946    -1.8398     2.8872    20.6309    41.2634     0.6705    14.6339    14.6339    -0.0000     1.4742     1.5529     1.0000     1.000
    143     0.0002     0.9999     0.2440     10.239   1258.000 259617.000     10.000    41.2634     0.0000   -32.0692   -14.5064    -1.9024     2.8975    20.6309    41.2634     0.6710    14.6339    14.6339    -0.0000     1.4729     1.5525     1.0000     1.000
    144     0.0003     1.0000     0.2460     10.274   1140.000 259617.000     10.000    41.2634     0.0000   -31.9291   -14.5201    -1.9085     2.8886    20.6309    41.2634     0.6717    14.6339    14.6339    -0.0000     1.4727     1.5486     1.0000     1.000
    145    -0.0000     1.0001     0.2480     10.298   1135.000 259617.000     10.000    41.2634     0.0000   -31.7894   -14.5349    -1.8941     2.8910    20.6309    41.2634     0.6724    14.6339    14.6339    -0.0000     1.4729     1.5496     1.0000     1.000
    146    -0.0000     1.0000     0.2500     10.333   1018.000 259617.000     10.000    41.2634     0.0000   -31.6499   -14.5467    -1.8921     2.8950    20.6309    41.2634     0.6729    14.6339    14.6339    -0.0000     1.4726     1.5527     1.0000     1.000
    147    -0.0018     1.0000     0.2520     10.266    741.000 259617.000     10.000    41.2634     0.0000   -31.5108   -14.5605    -1.8177     2.8933    20.6309    41.2634     0.6735    14.6339    14.6339    -0.0000     1.4722     1.5501     1.0000     1.000
    148     0.0000     1.0000     0.2540     10.296    566.000 259617.000     10.000    41.2634     0.0000   -31.3720   -14.5743    -1.8904     2.9039    20.6309    41.2634     0.6742    14.6339    14.6339    -0.0000     1.4723     1.5497     1.0000     1.000
    149    -0.0014     1.0000     0.2560     10.273    457.000 259617.000     10.000    41.2634     0.0000   -31.2335   -14.5881    -1.8292     2.9015    20.6309    41.2634     0.6748    14.6339    14.6339    -0.0000     1.4721     1.5460     1.0000     1.000
    150    -0.0000     1.0000     0.2580     10.274    412.000 259617.000     10.000    41.2634     0.0000   -31.0953   -14.6009    -1.8992     2.8814    20.6309    41.2634     0.6754    14.6339    14.6339    -0.0000     1.4723     1.5508     1.0000     1.000
    151     0.0001     1.0000     0.2600     10.266    316.000 259617.000     10.000    41.2634     0.0000   -30.9575   -14.6156    -1.8977     2.8989    20.6309    41.2634     0.6761    14.6339    14.6339    -0.0000     1.4719     1.5463     1.0000     1.000
    152    -0.0007     1.0000     0.2620     10.304    313.000 259617.000     10.000    41.2634     0.0000   -30.8199   -14.6294    -1.8645     2.8930    20.6309    41.2634     0.6767    14.6339    14.6339    -0.0000     1.4720     1.5480     1.0000     1.000
    153     0.0004     1.0000     0.2640     10.290    240.000 259617.000     10.000    41.2634     0.0000   -30.6827   -14.6432    -1.9107     2.8955    20.6309    41.2634     0.6773    14.6339    14.6339    -0.0000     1.4724     1.5497     1.0000     1.000
    154    -0.0002     1.0000     0.2660     10.326    239.000 259617.000     10.000    41.2634     0.0000   -30.5458   -14.6570    -1.8888     2.8881    20.6309    41.2634     0.6780    14.6339    14.6339    -0.0000     1.4721     1.5492     1.0000     1.000
    155    -0.0005     1.0001     0.2680     10.293    222.000 259617.000     10.000    41.2634     0.0000   -30.4093   -14.6727    -1.8734     2.8938    20.6309    41.2634     0.6787    14.6339    14.6339    -0.0000     1.4714     1.5465     1.0000     1.000
    156    -0.0026     1.0000     0.2700     10.295    235.000 259617.000     10.000    41.2634     0.0000   -30.2730   -14.6855    -1.7864     2.8939    20.6309    41.2634     0.6793    14.6339    14.6339    -0.0000     1.4716     1.5476     1.0000     1.000
    157    -0.0000     1.0000     0.2720     10.282    223.000 259617.000     10.000    41.2634     0.0000   -30.1371   -14.7003    -1.8922     2.8990    20.6309    41.2634     0.6800    14.6339    14.6339    -0.0000     1.4715     1.5485     1.0000     1.000
    158     0.0013     1.0001     0.2740     10.241    239.000 259617.000     10.000    41.2634     0.0000   -30.0015   -14.7160    -1.9492     2.8935    20.6309    41.2634     0.6807    14.6339    14.6339    -0.0000     1.4713     1.5473     1.0000     1.000
    159    -0.0020     1.0000     0.2760     10.230    261.000 259617.000     10.000    41.2634     0.0000   -29.8662   -14.7288    -1.8098     2.8932    20.6309    41.2634     0.6813    14.6339    14.6339    -0.0000     1.4712     1.5453     1.0000     1.000
    160    -0.0001     1.0000     0.2780     10.299    234.000 259617.000     10.000    41.2634     0.0000   -29.7313   -14.7446    -1.8921     2.8920    20.6309    41.2634     0.6820    14.6339    14.6339    -0.0000     1.4709     1.5481     1.0000     1.000
    161    -0.0015     1.0000     0.2800     10.295    227.000 259617.000     10.000    41.2634     0.0000   -29.5967   -14.7583    -1.8335     2.8906    20.6309    41.2634     0.6826    14.6339    14.6339    -0.0000     1.4709     1.5449     1.0000     1.000
    162     0.0000     1.0000     0.2820     10.284    231.000 259617.000     10.000    41.2634     0.0000   -29.4624   -14.7741    -1.8964     2.8911    20.6309    41.2634     0.6834    14.6339    14.6339    -0.0000     1.4709     1.5449     1.0000     1.000
    163     0.0003     1.0000     0.2840     10.265    202.000 259617.000     10.000    41.2634     0.0000   -29.3284   -14.7879    -1.9069     2.8932    20.6309    41.2634     0.6840    14.6339    14.6339    -0.0000     1.4708     1.5453     1.0000     1.000
    164     0.0002     1.0000     0.2860     10.231    231.000 259617.000     10.000    41.2634     0.0000   -29.1948   -14.8036    -1.9000     2.8997    20.6309    41.2634     0.6847    14.6339    14.6339    -0.0000     1.4701     1.5467     1.0000     1.000
    165    -0.0018     1.0000     0.2880     10.270    213.000 259617.000     10.000    41.2634     0.0000   -29.0615   -14.8184    -1.8174     2.8957    20.6309    41.2634     0.6854    14.6339    14.6339    -0.0000     1.4707     1.5460     1.0000     1.000
    166     0.0001     1.0000     0.2900     10.299    215.000 259617.000     10.000    41.2634     0.0000   -28.9285   -14.8341    -1.8986     2.8927    20.6309    41.2634     0.6861    14.6339    14.6339    -0.0000     1.4704     1.5454     1.0000     1.000
    167    -0.0000     0.9999     0.2920     10.289    225.000 259617.000     10.000    41.2634     0.0000   -28.7959   -14.8479    -1.8914     2.8995    20.6309    41.2634     0.6867    14.6339    14.6339    -0.0000     1.4704     1.5478     1.0000     1.000
    168    -0.0026     1.0001     0.2940     10.245    223.000 259617.000     10.000    41.2634     0.0000   -28.6636   -14.8656    -1.7852     2.8985    20.6309    41.2634     0.6876    14.6339    14.6339    -0.0000     1.4703     1.5462     1.0000     1.000
    169     0.0000     1.0000     0.2960     10.290    243.000 259617.000     10.000    41.2634     0.0000   -28.5316   -14.8794    -1.8945     2.8957    20.6309    41.2634     0.6882    14.6339    14.6339    -0.0000     1.4697     1.5440     1.0000     1.000
    170    -0.0002     1.0001     0.2980     10.296    209.000 259617.000     10.000    41.2634     0.0000   -28.4000   -14.8971    -1.8822     2.9006    20.6309    41.2634     0.6890    14.6339    14.6339    -0.0000     1.4705     1.5460     1.0000     1.000
    171     0.0002     0.9999     0.3000     10.270    282.000 259617.000     10.000    41.2634     0.0000   -28.2687   -14.9099    -1.9001     2.8981    20.6309    41.2634     0.6896    14.6339    14.6339    -0.0000     1.4693     1.5473     1.0000     1.000
    172    -0.0004     1.0001     0.3020     10.247    239.000 259617.000     10.000    41.2634     0.0000   -28.1377   -14.9286    -1.8763     2.8934    20.6309    41.2634     0.6905    14.6339    14.6339    -0.0000     1.4693     1.5450     1.0000     1.000
    173     0.0000     0.9999     0.3040     10.299    294.000 259617.000     10.000    41.2634     0.0000   -28.0071   -14.9414    -1.8939     2.8967    20.6309    41.2634     0.6910    14.6339    14.6339    -0.0000     1.4696     1.5424     1.0000     1.000
    174    -0.0019     1.0001     0.3060     10.333    323.000 259617.000     10.000    41.2634     0.0000   -27.8768   -14.9601    -1.8169     2.8950    20.6309    41.2634     0.6919    14.6339    14.6339    -0.0000     1.4690     1.5430     1.0000     1.000
    175     0.0001     0.9999     0.3080     10.302    295.000 259617.000     10.000    41.2634     0.0000   -27.7469   -14.9739    -1.8939     2.9054    20.6309    41.2634     0.6925    14.6339    14.6339    -0.0000     1.4692     1.5418     1.0000     1.000
    176    -0.0011     1.0000     0.3100     10.258    249.000 259617.000     10.000    41.2634     0.0000   -27.6172   -14.9916    -1.8476     2.8953    20.6309    41.2634     0.6934    14.6339    14.6339    -0.0000     1.4695     1.5418     1.0000     1.000
    177    -0.0000     1.0000     0.3120     10.324    278.000 259617.000     10.000    41.2634     0.0000   -27.4880   -15.0064    -1.8967     2.8832    20.6309    41.2634     0.6940    14.6339    14.6339    -0.0000     1.4696     1.5459     1.0000     1.000
    178     0.0000     1.0000     0.3140     10.366    255.000 259617.000     10.000    41.2634     0.0000   -27.3590   -15.0231    -1.8979     2.8893    20.6309    41.2634     0.6948    14.6339    14.6339    -0.0000     1.4697     1.5440     1.0000     1.000
    179    -0.0018     1.0001     0.3161     10.258    255.000 259617.000     10.000    41.2634     0.0000   -27.2304   -15.0418    -1.8250     2.8848    20.6309    41.2634     0.6957    14.6339    14.6339    -0.0000     1.4689     1.5393     1.0000     1.000
    180    -0.0000     0.9998     0.3179     10.224    224.000 259617.000     10.000    41.2634     0.0000   -27.1022   -15.0526    -1.8950     2.8894    20.6309    41.2634     0.6962    14.6339    14.6339    -0.0000     1.4694     1.5446     1.0000     1.000
    181    -0.0024     1.0001     0.3200     10.272    216.000 259617.000     10.000    41.2634     0.0000   -26.9742   -15.0743    -1.7986     2.8921    20.6309    41.2634     0.6972    14.6339    14.6339    -0.0000     1.4698     1.5447     1.0000     1.000
    182    -0.0001     0.9999     0.3220     10.319    205.000 259617.000     10.000    41.2634     0.0000   -26.8467   -15.0881    -1.8916     2.8877    20.6309    41.2634     0.6978    14.6339    14.6339    -0.0000     1.4693     1.5463     1.0000     1.000
    183    -0.0001     0.9999     0.3240     10.284    203.000 259617.000     10.000    41.2634     0.0000   -26.7194   -15.1048    -1.8902     2.8994    20.6309    41.2634     0.6986    14.6339    14.6339    -0.0000     1.4689     1.5474     1.0000     1.000
    184    -0.0001     1.0002     0.3261     10.281    206.000 259617.000     10.000    41.2634     0.0000   -26.5925   -15.1255    -1.8886     2.8965    20.6309    41.2634     0.6995    14.6339    14.6339    -0.0000     1.4681     1.5400     1.0000     1.000
    185     0.0000     0.9999     0.3279     10.286    191.000 259617.000     10.000    41.2634     0.0000   -26.4660   -15.1373    -1.8949     2.8935    20.6309    41.2634     0.7001    14.6339    14.6339    -0.0000     1.4686     1.5430     1.0000     1.000
    186    -0.0022     1.0002     0.3301     10.293    211.000 259617.000     10.000    41.2634     0.0000   -26.3398   -15.1599    -1.8065     2.8915    20.6309    41.2634     0.7011    14.6339    14.6339    -0.0000     1.4694     1.5462     1.0000     1.000
    187    -0.0001     0.9998     0.3319     10.262    221.000 259617.000     10.000    41.2634     0.0000   -26.2139   -15.1698    -1.8876     2.8988    20.6309    41.2634     0.7015    14.6339    14.6339    -0.0000     1.4683     1.5441     1.0000     1.000
    188    -0.0016     1.0002     0.3341     10.279    199.000 259617.000     10.000    41.2634     0.0000   -26.0884   -15.1944    -1.8303     2.8907    20.6309    41.2634     0.7027    14.6339    14.6339    -0.0000     1.4687     1.5434     1.0000     1.000
    189     0.0001     0.9998     0.3359     10.310    186.000 259617.000     10.000    41.2634     0.0000   -25.9632   -15.2052    -1.8975     2.8946    20.6309    41.2634     0.7032    14.6339    14.6339    -0.0000     1.4691     1.5435     1.0000     1.000
    190    -0.0017     1.0001     0.3380     10.300    218.000 259617.000     10.000    41.2634     0.0000   -25.8383   -15.2268    -1.8261     2.8923    20.6309    41.2634     0.7042    14.6339    14.6339    -0.0000     1.4681     1.5391     1.0000     1.000
    191    -0.0002     0.9999     0.3400     10.303    199.000 259617.000     10.000    41.2634     0.0000   -25.7138   -15.2416    -1.8871     2.8913    20.6309    41.2634     0.7049    14.6339    14.6339    -0.0000     1.4684     1.5419     1.0000     1.000
    192    -0.0002     1.0000     0.3420     10.279    197.000 259617.000     10.000    41.2634     0.0000   -25.5897   -15.2603    -1.8920     2.8791    20.6309    41.2634     0.7057    14.6339    14.6339    -0.0000     1.4683     1.5443     1.0000     1.000
    193    -0.0000     1.0001     0.3440     10.282    182.000 259617.000     10.000    41.2634     0.0000   -25.4658   -15.2790    -1.8935     2.8962    20.6309    41.2634     0.7066    14.6339    14.6339    -0.0000     1.4678     1.5425     1.0000     1.000
    194    -0.0023     0.9999     0.3460     10.287    188.000 259617.000     10.000    41.2634     0.0000   -25.3424   -15.2938    -1.8040     2.8948    20.6309    41.2634     0.7073    14.6339    14.6339    -0.0000     1.4687     1.5429     1.0000     1.000
    195    -0.0001     1.0001     0.3480     10.298    205.000 259617.000     10.000    41.2634     0.0000   -25.2193   -15.3144    -1.8927     2.8924    20.6309    41.2634     0.7082    14.6339    14.6339    -0.0000     1.4679     1.5395     1.0000     1.000
    196    -0.0000     0.9999     0.3500     10.301    209.000 259617.000     10.000    41.2634     0.0000   -25.0965   -15.3292    -1.8935     2.8947    20.6309    41.2634     0.7089    14.6339    14.6339    -0.0000     1.4677     1.5382     1.0000     1.000
# Sum of Counts = 243469
# Center of Mass = 0.211331+/-0.000620
# Full Width Half-Maximum = 0.131405+/-0.000422
# 6:47:43 PM  3/12/2016   scan completed.
