# scan = 229
# date = 3/12/2016
# time = 11:30:19 PM
# proposal = IPTS-15083.1
# experiment = Evolution of the magnetic structure with applied field in multiferroic (ND4)2[FeCl5(D2O)]
# experiment_number = 718
# command = scan h 0 k 1 l -0.04 0.35 0.002 preset mcu 10
# builtin_command = scan h 0 k 1 l -0.04 0.35 0.002 preset mcu 10
# users = Wei Tian, Jaime Fernandez-Baca, Huibo Cao
# local_contact = Wei Tian
# scan_title = scan (0 1 L), 1.5K, 2.4 T
# monochromator = PG002
# analyzer = Pg002
# sense = +-+
# collimation = 40-40-40-60
# samplename = (ND4)2[FeCl5(D2O)]
# sampletype = crystal
# samplemosaic = 30.000000
# latticeconstants = 13.659912,9.922999,6.896657,90.000000,90.000000,90.000000
# ubmatrix = -0.002420,0.072257,0.100960,-0.003695,0.069997,-0.104056,-0.073074,-0.005932,0.001919
# mode = 0
# plane_normal = 0.033051,0.050478,0.998178
# ubconf = UB11Mar2016_12747PM.ini
# preset_type = normal 
# preset_channel = mcu
# preset_value = 10.000000
# def_x = l
# def_y = detector
# col_headers = 
#   Pt.          h          k          l       time   detector    monitor        mcu         m2      mag_e         s1         s2        sgl        sgu         a1         a2          q         ei         ef          e    coldtip    tsample       temp persistent_field
      1    -0.0000     1.0005    -0.0400     10.231    175.000 259617.000     10.000    41.2634     0.0000   -54.3131   -13.7140    -1.8954     2.8913    20.6309    41.2644     0.6346    14.6339    14.6332     0.0007     1.4451     1.5048     1.0000     2.400
      2     0.0000     1.0004    -0.0380     10.286    156.000 259617.000     10.000    41.2634     0.0000   -54.1476   -13.7111    -1.8974     2.8929    20.6309    41.2644     0.6344    14.6339    14.6332     0.0007     1.4451     1.5014     1.0000     2.400
      3    -0.0006     1.0005    -0.0360     10.267    148.000 259617.000     10.000    41.2634     0.0000   -53.9822   -13.7101    -1.8680     2.8855    20.6309    41.2644     0.6344    14.6339    14.6332     0.0007     1.4447     1.4999     1.0000     2.400
      4    -0.0002     1.0005    -0.0340     10.242    156.000 259617.000     10.000    41.2634     0.0000   -53.8167   -13.7072    -1.8944     2.8852    20.6309    41.2644     0.6342    14.6339    14.6332     0.0007     1.4441     1.5003     1.0000     2.400
      5     0.0001     1.0005    -0.0320     10.268    157.000 259617.000     10.000    41.2634     0.0000   -53.6513   -13.7052    -1.8998     2.8964    20.6309    41.2644     0.6342    14.6339    14.6332     0.0007     1.4440     1.4995     1.0000     2.400
      6    -0.0000     1.0004    -0.0300     10.227    146.000 259617.000     10.000    41.2634     0.0000   -53.4859   -13.7022    -1.8900     2.8971    20.6309    41.2644     0.6340    14.6339    14.6332     0.0007     1.4439     1.4984     1.0000     2.400
      7     0.0000     1.0004    -0.0280     10.247    171.000 259617.000     10.000    41.2634     0.0000   -53.3204   -13.7013    -1.8923     2.8970    20.6309    41.2644     0.6340    14.6339    14.6332     0.0007     1.4437     1.4982     1.0000     2.400
      8    -0.0005     1.0007    -0.0260     10.231    174.000 259617.000     10.000    41.2634     0.0000   -53.1551   -13.7042    -1.8665     2.8946    20.6309    41.2644     0.6341    14.6339    14.6332     0.0007     1.4436     1.4976     1.0000     2.400
      9    -0.0001     1.0003    -0.0240     10.249    169.000 259617.000     10.000    41.2634     0.0000   -52.9897   -13.6963    -1.8957     2.8877    20.6309    41.2644     0.6337    14.6339    14.6332     0.0007     1.4436     1.4990     1.0000     2.400
     10     0.0000     1.0002    -0.0220     10.224    175.000 259617.000     10.000    41.2634     0.0000   -52.8243   -13.6944    -1.8964     2.8946    20.6309    41.2644     0.6337    14.6339    14.6332     0.0007     1.4433     1.4985     1.0000     2.400
     11    -0.0001     1.0002    -0.0200     10.276    174.000 259617.000     10.000    41.2634     0.0000   -52.6590   -13.6934    -1.8995     2.8859    20.6309    41.2644     0.6336    14.6339    14.6332     0.0007     1.4436     1.5002     1.0000     2.400
     12    -0.0001     1.0002    -0.0180     10.233    178.000 259617.000     10.000    41.2634     0.0000   -52.4937   -13.6914    -1.8910     2.8940    20.6309    41.2644     0.6335    14.6339    14.6332     0.0007     1.4438     1.4974     1.0000     2.400
     13    -0.0001     1.0002    -0.0160     10.264    204.000 259617.000     10.000    41.2634     0.0000   -52.3285   -13.6914    -1.8926     2.8882    20.6309    41.2644     0.6335    14.6339    14.6332     0.0007     1.4435     1.4971     1.0000     2.400
     14    -0.0006     1.0004    -0.0140     10.276    188.000 259617.000     10.000    41.2634     0.0000   -52.1632   -13.6924    -1.8571     2.8956    20.6309    41.2644     0.6336    14.6339    14.6332     0.0007     1.4434     1.4973     1.0000     2.400
     15     0.0002     1.0002    -0.0120     10.253    226.000 259617.000     10.000    41.2634     0.0000   -51.9980   -13.6894    -1.8936     2.9069    20.6309    41.2644     0.6334    14.6339    14.6332     0.0007     1.4433     1.4981     1.0000     2.400
     16    -0.0003     1.0004    -0.0100     10.221    261.000 259617.000     10.000    41.2634     0.0000   -51.8329   -13.6914    -1.8799     2.8909    20.6309    41.2644     0.6335    14.6339    14.6332     0.0007     1.4434     1.4972     1.0000     2.400
     17    -0.0000     1.0002    -0.0080     10.308    325.000 259617.000     10.000    41.2634     0.0000   -51.6678   -13.6875    -1.8971     2.8917    20.6309    41.2644     0.6333    14.6339    14.6332     0.0007     1.4432     1.4981     1.0000     2.400
     18    -0.0000     1.0003    -0.0060     10.266    589.000 259617.000     10.000    41.2634     0.0000   -51.5027   -13.6885    -1.8997     2.8886    20.6309    41.2644     0.6334    14.6339    14.6332     0.0007     1.4433     1.4976     1.0000     2.400
     19     0.0007     1.0003    -0.0040     10.248   1135.000 259617.000     10.000    41.2634     0.0000   -51.3377   -13.6885    -1.9375     2.8912    20.6309    41.2644     0.6334    14.6339    14.6332     0.0007     1.4435     1.4961     1.0000     2.400
     20     0.0002     1.0002    -0.0020     10.262   1856.000 259617.000     10.000    41.2634     0.0000   -51.1728   -13.6875    -1.8960     2.9019    20.6309    41.2644     0.6333    14.6339    14.6332     0.0007     1.4432     1.4989     1.0000     2.400
     21    -0.0001     1.0002     0.0000     10.307   2195.000 259617.000     10.000    41.2634     0.0000   -51.0079   -13.6875    -1.8955     2.8893    20.6309    41.2644     0.6333    14.6339    14.6332     0.0007     1.4435     1.4981     1.0000     2.400
     22    -0.0002     1.0001     0.0020     10.343   1870.000 259617.000     10.000    41.2634     0.0000   -50.8430   -13.6865    -1.8883     2.8892    20.6309    41.2644     0.6333    14.6339    14.6332     0.0007     1.4438     1.4991     1.0000     2.400
     23     0.0005     1.0005     0.0040     10.273   1138.000 259617.000     10.000    41.2634     0.0000   -50.6782   -13.6914    -1.9335     2.8852    20.6309    41.2644     0.6335    14.6339    14.6332     0.0007     1.4438     1.4962     1.0000     2.400
     24    -0.0000     1.0001     0.0060     10.298    707.000 259617.000     10.000    41.2634     0.0000   -50.5135   -13.6865    -1.8950     2.8924    20.6309    41.2644     0.6333    14.6339    14.6332     0.0007     1.4434     1.4986     1.0000     2.400
     25    -0.0005     1.0004     0.0080     10.280    486.000 259617.000     10.000    41.2634     0.0000   -50.3488   -13.6904    -1.8763     2.8820    20.6309    41.2644     0.6335    14.6339    14.6332     0.0007     1.4438     1.4954     1.0000     2.400
     26    -0.0000     1.0001     0.0100     10.251    319.000 259617.000     10.000    41.2634     0.0000   -50.1842   -13.6875    -1.8972     2.8912    20.6309    41.2644     0.6333    14.6339    14.6332     0.0007     1.4437     1.4976     1.0000     2.400
     27    -0.0006     1.0005     0.0120     10.263    250.000 259617.000     10.000    41.2634     0.0000   -50.0197   -13.6934    -1.8686     2.8857    20.6309    41.2644     0.6336    14.6339    14.6332     0.0007     1.4439     1.4974     1.0000     2.400
     28    -0.0003     1.0002     0.0140     10.327    202.000 259617.000     10.000    41.2634     0.0000   -49.8553   -13.6894    -1.8967     2.8768    20.6309    41.2644     0.6334    14.6339    14.6332     0.0007     1.4434     1.4969     1.0000     2.400
     29     0.0000     1.0002     0.0160     10.278    192.000 259617.000     10.000    41.2634     0.0000   -49.6909   -13.6904    -1.8953     2.8943    20.6309    41.2644     0.6335    14.6339    14.6332     0.0007     1.4435     1.4985     1.0000     2.400
     30    -0.0001     1.0002     0.0180     10.267    180.000 259617.000     10.000    41.2634     0.0000   -49.5266   -13.6914    -1.8957     2.8856    20.6309    41.2644     0.6335    14.6339    14.6332     0.0007     1.4436     1.4963     1.0000     2.400
     31     0.0000     1.0002     0.0200     10.284    166.000 259617.000     10.000    41.2634     0.0000   -49.3624   -13.6924    -1.8967     2.8944    20.6309    41.2644     0.6336    14.6339    14.6332     0.0007     1.4443     1.4956     1.0000     2.400
     32     0.0006     1.0004     0.0220     10.263    179.000 259617.000     10.000    41.2634     0.0000   -49.1983   -13.6963    -1.9299     2.8910    20.6309    41.2644     0.6337    14.6339    14.6332     0.0007     1.4438     1.4956     1.0000     2.400
     33     0.0001     1.0000     0.0240     10.246    151.000 259617.000     10.000    41.2634     0.0000   -49.0342   -13.6924    -1.9002     2.8931    20.6309    41.2644     0.6336    14.6339    14.6332     0.0007     1.4441     1.4963     1.0000     2.400
     34    -0.0000     0.9999     0.0260     10.261    162.000 259617.000     10.000    41.2634     0.0000   -48.8703   -13.6924    -1.8889     2.8982    20.6309    41.2644     0.6336    14.6339    14.6332     0.0007     1.4440     1.4996     1.0000     2.400
     35    -0.0012     0.9998     0.0280     10.242    144.000 259617.000     10.000    41.2634     0.0000   -48.7064   -13.6924    -1.8381     2.8855    20.6309    41.2644     0.6336    14.6339    14.6332     0.0007     1.4443     1.4980     1.0000     2.400
     36    -0.0012     0.9997     0.0300     10.244    160.000 259617.000     10.000    41.2634     0.0000   -48.5427   -13.6924    -1.8279     2.8955    20.6309    41.2644     0.6336    14.6339    14.6332     0.0007     1.4443     1.4978     1.0000     2.400
     37    -0.0001     0.9995     0.0319     10.251    146.000 259617.000     10.000    41.2634     0.0000   -48.3790   -13.6924    -1.8981     2.8838    20.6309    41.2644     0.6336    14.6339    14.6332     0.0007     1.4444     1.4976     1.0000     2.400
     38    -0.0002     0.9994     0.0339     10.255    166.000 259617.000     10.000    41.2634     0.0000   -48.2154   -13.6924    -1.8929     2.8850    20.6309    41.2644     0.6336    14.6339    14.6332     0.0007     1.4447     1.4976     1.0000     2.400
     39    -0.0001     1.0000     0.0360     10.241    175.000 259617.000     10.000    41.2634     0.0000   -48.0520   -13.7022    -1.8956     2.8847    20.6309    41.2644     0.6340    14.6339    14.6332     0.0007     1.4445     1.4981     1.0000     2.400
     40    -0.0016     0.9998     0.0380     10.246    154.000 259617.000     10.000    41.2634     0.0000   -47.8886   -13.7022    -1.8186     2.8809    20.6309    41.2644     0.6340    14.6339    14.6332     0.0007     1.4450     1.4986     1.0000     2.400
     41    -0.0002     0.9996     0.0400     10.268    152.000 259617.000     10.000    41.2634     0.0000   -47.7253   -13.7022    -1.8916     2.8827    20.6309    41.2644     0.6340    14.6339    14.6332     0.0007     1.4446     1.4968     1.0000     2.400
     42    -0.0012     0.9995     0.0419     10.235    153.000 259617.000     10.000    41.2634     0.0000   -47.5622   -13.7022    -1.8423     2.8812    20.6309    41.2644     0.6340    14.6339    14.6332     0.0007     1.4447     1.4975     1.0000     2.400
     43    -0.0000     0.9993     0.0439     10.298    143.000 259617.000     10.000    41.2634     0.0000   -47.3992   -13.7022    -1.8964     2.8921    20.6309    41.2644     0.6340    14.6339    14.6332     0.0007     1.4447     1.5004     1.0000     2.400
     44    -0.0000     1.0000     0.0460     10.266    146.000 259617.000     10.000    41.2634     0.0000   -47.2363   -13.7150    -1.8971     2.8894    20.6309    41.2644     0.6346    14.6339    14.6332     0.0007     1.4447     1.4997     1.0000     2.400
     45    -0.0000     0.9998     0.0480     10.256    175.000 259617.000     10.000    41.2634     0.0000   -47.0735   -13.7150    -1.8974     2.8909    20.6309    41.2644     0.6346    14.6339    14.6332     0.0007     1.4451     1.4986     1.0000     2.400
     46    -0.0001     0.9996     0.0500     10.242    141.000 259617.000     10.000    41.2634     0.0000   -46.9108   -13.7150    -1.8948     2.8899    20.6309    41.2644     0.6346    14.6339    14.6332     0.0007     1.4452     1.4995     1.0000     2.400
     47     0.0001     0.9994     0.0519     10.242    142.000 259617.000     10.000    41.2634     0.0000   -46.7483   -13.7150    -1.8964     2.8970    20.6309    41.2644     0.6346    14.6339    14.6332     0.0007     1.4450     1.5003     1.0000     2.400
     48    -0.0015     0.9999     0.0540     10.286    156.000 259617.000     10.000    41.2634     0.0000   -46.5858   -13.7249    -1.8247     2.8799    20.6309    41.2644     0.6351    14.6339    14.6332     0.0007     1.4457     1.4995     1.0000     2.400
     49     0.0000     0.9997     0.0560     10.281    152.000 259617.000     10.000    41.2634     0.0000   -46.4236   -13.7249    -1.8949     2.8954    20.6309    41.2644     0.6351    14.6339    14.6332     0.0007     1.4453     1.5021     1.0000     2.400
     50    -0.0012     0.9995     0.0579     10.247    150.000 259617.000     10.000    41.2634     0.0000   -46.2614   -13.7249    -1.8326     2.8915    20.6309    41.2644     0.6351    14.6339    14.6332     0.0007     1.4458     1.4996     1.0000     2.400
     51    -0.0001     1.0000     0.0600     10.249    134.000 259617.000     10.000    41.2634     0.0000   -46.0994   -13.7357    -1.8952     2.8875    20.6309    41.2644     0.6356    14.6339    14.6332     0.0007     1.4453     1.4997     1.0000     2.400
     52     0.0001     0.9998     0.0620     10.250    154.000 259617.000     10.000    41.2634     0.0000   -45.9375   -13.7357    -1.9009     2.8945    20.6309    41.2644     0.6356    14.6339    14.6332     0.0007     1.4456     1.5002     1.0000     2.400
     53    -0.0012     0.9995     0.0639     10.239    147.000 259617.000     10.000    41.2634     0.0000   -45.7757   -13.7357    -1.8340     2.8913    20.6309    41.2644     0.6356    14.6339    14.6332     0.0007     1.4451     1.4983     1.0000     2.400
     54    -0.0001     1.0000     0.0660     10.323    142.000 259617.000     10.000    41.2634     0.0000   -45.6141   -13.7465    -1.8915     2.8904    20.6309    41.2644     0.6361    14.6339    14.6332     0.0007     1.4449     1.4996     1.0000     2.400
     55    -0.0017     0.9997     0.0680     10.315    148.000 259617.000     10.000    41.2634     0.0000   -45.4527   -13.7465    -1.8143     2.8842    20.6309    41.2644     0.6361    14.6339    14.6332     0.0007     1.4451     1.4972     1.0000     2.400
     56    -0.0002     0.9995     0.0699     10.279    166.000 259617.000     10.000    41.2634     0.0000   -45.2914   -13.7465    -1.8966     2.8794    20.6309    41.2644     0.6361    14.6339    14.6332     0.0007     1.4446     1.4975     1.0000     2.400
     57    -0.0019     1.0000     0.0720     10.203    140.000 259617.000     10.000    41.2634     0.0000   -45.1302   -13.7583    -1.8019     2.8859    20.6309    41.2644     0.6366    14.6339    14.6332     0.0007     1.4449     1.4970     1.0000     2.400
     58     0.0000     0.9997     0.0740     10.294    142.000 259617.000     10.000    41.2634     0.0000   -44.9692   -13.7583    -1.8968     2.8939    20.6309    41.2644     0.6366    14.6339    14.6332     0.0007     1.4450     1.4981     1.0000     2.400
     59    -0.0012     0.9994     0.0759     10.251    157.000 259617.000     10.000    41.2634     0.0000   -44.8083   -13.7583    -1.8293     2.8967    20.6309    41.2644     0.6366    14.6339    14.6332     0.0007     1.4448     1.4973     1.0000     2.400
     60    -0.0002     1.0000     0.0780     10.268    145.000 259617.000     10.000    41.2634     0.0000   -44.6476   -13.7711    -1.8932     2.8856    20.6309    41.2644     0.6372    14.6339    14.6332     0.0007     1.4451     1.4988     1.0000     2.400
     61     0.0001     0.9997     0.0800     10.319    149.000 259617.000     10.000    41.2634     0.0000   -44.4871   -13.7711    -1.8970     2.8954    20.6309    41.2644     0.6372    14.6339    14.6332     0.0007     1.4451     1.4990     1.0000     2.400
     62    -0.0006     0.9994     0.0819     10.276    173.000 259617.000     10.000    41.2634     0.0000   -44.3267   -13.7711    -1.8721     2.8816    20.6309    41.2644     0.6372    14.6339    14.6332     0.0007     1.4450     1.4989     1.0000     2.400
     63    -0.0000     1.0000     0.0840     10.270    169.000 259617.000     10.000    41.2634     0.0000   -44.1665   -13.7839    -1.8955     2.8905    20.6309    41.2644     0.6378    14.6339    14.6332     0.0007     1.4445     1.4985     1.0000     2.400
     64    -0.0002     0.9996     0.0859     10.259    156.000 259617.000     10.000    41.2634     0.0000   -44.0064   -13.7839    -1.8905     2.8889    20.6309    41.2644     0.6378    14.6339    14.6332     0.0007     1.4445     1.4999     1.0000     2.400
     65    -0.0001     1.0000     0.0880     10.253    163.000 259617.000     10.000    41.2634     0.0000   -43.8466   -13.7938    -1.8983     2.8815    20.6309    41.2644     0.6382    14.6339    14.6332     0.0007     1.4446     1.5017     1.0000     2.400
     66    -0.0013     0.9996     0.0899     10.255    155.000 259617.000     10.000    41.2634     0.0000   -43.6869   -13.7938    -1.8350     2.8844    20.6309    41.2644     0.6382    14.6339    14.6332     0.0007     1.4449     1.4997     1.0000     2.400
     67    -0.0000     1.0000     0.0920     10.324    175.000 259617.000     10.000    41.2634     0.0000   -43.5273   -13.8046    -1.8947     2.8938    20.6309    41.2644     0.6387    14.6339    14.6332     0.0007     1.4451     1.5006     1.0000     2.400
     68    -0.0012     0.9996     0.0939     10.294    167.000 259617.000     10.000    41.2634     0.0000   -43.3680   -13.8046    -1.8320     2.8945    20.6309    41.2644     0.6387    14.6339    14.6332     0.0007     1.4454     1.4995     1.0000     2.400
     69     0.0000     1.0000     0.0960     10.206    149.000 259617.000     10.000    41.2634     0.0000   -43.2088   -13.8144    -1.8960     2.8929    20.6309    41.2644     0.6392    14.6339    14.6332     0.0007     1.4457     1.4997     1.0000     2.400
     70    -0.0001     0.9996     0.0979     10.256    158.000 259617.000     10.000    41.2634     0.0000   -43.0498   -13.8144    -1.8931     2.8868    20.6309    41.2644     0.6392    14.6339    14.6332     0.0007     1.4458     1.5007     1.0000     2.400
     71    -0.0002     1.0000     0.1000     10.255    156.000 259617.000     10.000    41.2634     0.0000   -42.8910   -13.8263    -1.8908     2.8877    20.6309    41.2644     0.6397    14.6339    14.6332     0.0007     1.4457     1.5008     1.0000     2.400
     72    -0.0001     0.9996     0.1019     10.259    173.000 259617.000     10.000    41.2634     0.0000   -42.7324   -13.8263    -1.8945     2.8889    20.6309    41.2644     0.6397    14.6339    14.6332     0.0007     1.4456     1.4996     1.0000     2.400
     73    -0.0016     1.0000     0.1040     10.269    172.000 259617.000     10.000    41.2634     0.0000   -42.5739   -13.8371    -1.8210     2.8837    20.6309    41.2644     0.6402    14.6339    14.6332     0.0007     1.4455     1.5004     1.0000     2.400
     74    -0.0001     0.9996     0.1059     10.260    169.000 259617.000     10.000    41.2634     0.0000   -42.4157   -13.8371    -1.8945     2.8894    20.6309    41.2644     0.6402    14.6339    14.6332     0.0007     1.4453     1.4999     1.0000     2.400
     75    -0.0002     1.0000     0.1080     10.264    188.000 259617.000     10.000    41.2634     0.0000   -42.2577   -13.8499    -1.8913     2.8836    20.6309    41.2644     0.6408    14.6339    14.6332     0.0007     1.4456     1.4997     1.0000     2.400
     76     0.0000     0.9996     0.1099     10.223    139.000 259617.000     10.000    41.2634     0.0000   -42.0998   -13.8499    -1.8919     2.8984    20.6309    41.2644     0.6408    14.6339    14.6332     0.0007     1.4456     1.5018     1.0000     2.400
     77    -0.0001     1.0000     0.1120     10.293    154.000 259617.000     10.000    41.2634     0.0000   -41.9421   -13.8617    -1.8963     2.8821    20.6309    41.2644     0.6414    14.6339    14.6332     0.0007     1.4453     1.5018     1.0000     2.400
     78    -0.0002     0.9995     0.1139     10.295    182.000 259617.000     10.000    41.2634     0.0000   -41.7847   -13.8617    -1.8941     2.8840    20.6309    41.2644     0.6414    14.6339    14.6332     0.0007     1.4461     1.5015     1.0000     2.400
     79    -0.0001     1.0000     0.1160     10.238    174.000 259617.000     10.000    41.2634     0.0000   -41.6274   -13.8745    -1.8903     2.8943    20.6309    41.2644     0.6419    14.6339    14.6332     0.0007     1.4456     1.5029     1.0000     2.400
     80     0.0011     0.9995     0.1179     10.209    174.000 259617.000     10.000    41.2634     0.0000   -41.4704   -13.8745    -1.9451     2.8979    20.6309    41.2644     0.6419    14.6339    14.6332     0.0007     1.4457     1.5013     1.0000     2.400
     81     0.0004     1.0000     0.1200     10.218    191.000 259617.000     10.000    41.2634     0.0000   -41.3135   -13.8883    -1.9189     2.8865    20.6309    41.2644     0.6426    14.6339    14.6332     0.0007     1.4459     1.4993     1.0000     2.400
     82     0.0001     0.9996     0.1219     10.304    189.000 259617.000     10.000    41.2634     0.0000   -41.1569   -13.8883    -1.8928     2.9011    20.6309    41.2644     0.6426    14.6339    14.6332     0.0007     1.4453     1.5008     1.0000     2.400
     83    -0.0020     1.0000     0.1240     10.260    159.000 259617.000     10.000    41.2634     0.0000   -41.0005   -13.9011    -1.8001     2.8894    20.6309    41.2644     0.6432    14.6339    14.6332     0.0007     1.4458     1.4994     1.0000     2.400
     84     0.0000     0.9995     0.1259     10.238    164.000 259617.000     10.000    41.2634     0.0000   -40.8443   -13.9011    -1.8902     2.9006    20.6309    41.2644     0.6432    14.6339    14.6332     0.0007     1.4455     1.5016     1.0000     2.400
     85    -0.0014     1.0001     0.1280     10.256    174.000 259617.000     10.000    41.2634     0.0000   -40.6883   -13.9168    -1.8308     2.8842    20.6309    41.2644     0.6439    14.6339    14.6332     0.0007     1.4458     1.4992     1.0000     2.400
     86     0.0009     0.9996     0.1299     10.266    182.000 259617.000     10.000    41.2634     0.0000   -40.5325   -13.9168    -1.8915     2.9634    20.6309    41.2644     0.6439    14.6339    14.6332     0.0007     1.4463     1.5003     1.0000     2.400
     87     0.0006     1.0000     0.1320     10.217    165.000 259617.000     10.000    41.2634     0.0000   -40.3769   -13.9296    -1.9228     2.8953    20.6309    41.2644     0.6445    14.6339    14.6332     0.0007     1.4460     1.4993     1.0000     2.400
     88    -0.0000     0.9994     0.1339     10.271    177.000 259617.000     10.000    41.2634     0.0000   -40.2216   -13.9296    -1.8940     2.8931    20.6309    41.2644     0.6445    14.6339    14.6332     0.0007     1.4458     1.5027     1.0000     2.400
     89    -0.0016     1.0000     0.1360     10.265    157.000 259617.000     10.000    41.2634     0.0000   -40.0665   -13.9453    -1.8148     2.8951    20.6309    41.2644     0.6452    14.6339    14.6332     0.0007     1.4461     1.5002     1.0000     2.400
     90    -0.0002     0.9995     0.1379     10.236    166.000 259617.000     10.000    41.2634     0.0000   -39.9116   -13.9453    -1.8884     2.8858    20.6309    41.2644     0.6452    14.6339    14.6332     0.0007     1.4457     1.5003     1.0000     2.400
     91     0.0000     1.0000     0.1400     10.225    176.000 259617.000     10.000    41.2634     0.0000   -39.7570   -13.9611    -1.8965     2.8918    20.6309    41.2644     0.6459    14.6339    14.6332     0.0007     1.4457     1.5001     1.0000     2.400
     92    -0.0014     0.9995     0.1419     10.275    138.000 259617.000     10.000    41.2634     0.0000   -39.6025   -13.9611    -1.8276     2.8935    20.6309    41.2644     0.6459    14.6339    14.6332     0.0007     1.4462     1.4988     1.0000     2.400
     93    -0.0001     1.0000     0.1440     10.278    170.000 259617.000     10.000    41.2634     0.0000   -39.4483   -13.9759    -1.8951     2.8846    20.6309    41.2644     0.6466    14.6339    14.6332     0.0007     1.4461     1.5021     1.0000     2.400
     94     0.0000     0.9994     0.1459     10.262    190.000 259617.000     10.000    41.2634     0.0000   -39.2944   -13.9759    -1.8963     2.8937    20.6309    41.2644     0.6466    14.6339    14.6332     0.0007     1.4461     1.5023     1.0000     2.400
     95    -0.0001     1.0000     0.1480     10.258    175.000 259617.000     10.000    41.2634     0.0000   -39.1406   -13.9926    -1.8916     2.8936    20.6309    41.2644     0.6474    14.6339    14.6332     0.0007     1.4455     1.5007     1.0000     2.400
     96    -0.0001     0.9994     0.1499     10.257    203.000 259617.000     10.000    41.2634     0.0000   -38.9872   -13.9926    -1.8895     2.8925    20.6309    41.2644     0.6474    14.6339    14.6332     0.0007     1.4457     1.5013     1.0000     2.400
     97    -0.0002     1.0001     0.1520     10.226    198.000 259617.000     10.000    41.2634     0.0000   -38.8339   -14.0103    -1.8880     2.8872    20.6309    41.2644     0.6482    14.6339    14.6332     0.0007     1.4461     1.5015     1.0000     2.400
     98     0.0002     0.9995     0.1539     10.261    173.000 259617.000     10.000    41.2634     0.0000   -38.6809   -14.0103    -1.8925     2.9109    20.6309    41.2644     0.6482    14.6339    14.6332     0.0007     1.4461     1.5029     1.0000     2.400
     99    -0.0010     1.0000     0.1560     10.279    194.000 259617.000     10.000    41.2634     0.0000   -38.5282   -14.0261    -1.8455     2.8938    20.6309    41.2644     0.6489    14.6339    14.6332     0.0007     1.4461     1.5005     1.0000     2.400
    100    -0.0002     0.9994     0.1578     10.269    173.000 259617.000     10.000    41.2634     0.0000   -38.3756   -14.0261    -1.8918     2.8858    20.6309    41.2644     0.6489    14.6339    14.6332     0.0007     1.4457     1.5020     1.0000     2.400
    101    -0.0004     1.0000     0.1600     10.276    177.000 259617.000     10.000    41.2634     0.0000   -38.2234   -14.0448    -1.8807     2.8859    20.6309    41.2644     0.6498    14.6339    14.6332     0.0007     1.4462     1.5009     1.0000     2.400
    102    -0.0001     0.9994     0.1619     10.263    195.000 259617.000     10.000    41.2634     0.0000   -38.0714   -14.0448    -1.8938     2.8851    20.6309    41.2644     0.6498    14.6339    14.6332     0.0007     1.4462     1.4998     1.0000     2.400
    103    -0.0000     0.9999     0.1640     10.288    169.000 259617.000     10.000    41.2634     0.0000   -37.9196   -14.0605    -1.8974     2.8887    20.6309    41.2644     0.6505    14.6339    14.6332     0.0007     1.4462     1.5011     1.0000     2.400
    104    -0.0015     0.9999     0.1660     10.262    173.000 259617.000     10.000    41.2634     0.0000   -37.7681   -14.0703    -1.8239     2.8914    20.6309    41.2644     0.6510    14.6339    14.6332     0.0007     1.4466     1.5023     1.0000     2.400
    105    -0.0001     1.0000     0.1680     10.260    208.000 259617.000     10.000    41.2634     0.0000   -37.6168   -14.0812    -1.8974     2.8814    20.6309    41.2644     0.6515    14.6339    14.6332     0.0007     1.4462     1.5020     1.0000     2.400
    106    -0.0001     0.9994     0.1698     10.264    239.000 259617.000     10.000    41.2634     0.0000   -37.4658   -14.0812    -1.8909     2.8896    20.6309    41.2644     0.6515    14.6339    14.6332     0.0007     1.4463     1.5019     1.0000     2.400
    107     0.0000     1.0001     0.1720     10.212    198.000 259617.000     10.000    41.2634     0.0000   -37.3151   -14.1009    -1.8933     2.8976    20.6309    41.2644     0.6524    14.6339    14.6332     0.0007     1.4465     1.5019     1.0000     2.400
    108    -0.0003     0.9995     0.1739     10.229    211.000 259617.000     10.000    41.2634     0.0000   -37.1646   -14.1009    -1.8787     2.8991    20.6309    41.2644     0.6524    14.6339    14.6332     0.0007     1.4468     1.5008     1.0000     2.400
    109    -0.0007     0.9999     0.1760     10.220    229.000 259617.000     10.000    41.2634     0.0000   -37.0144   -14.1176    -1.8674     2.8871    20.6309    41.2644     0.6531    14.6339    14.6332     0.0007     1.4464     1.5010     1.0000     2.400
    110    -0.0016     0.9999     0.1780     10.246    242.000 259617.000     10.000    41.2634     0.0000   -36.8644   -14.1274    -1.8253     2.8883    20.6309    41.2644     0.6536    14.6339    14.6332     0.0007     1.4462     1.4996     1.0000     2.400
    111     0.0003     1.0000     0.1800     10.245    256.000 259617.000     10.000    41.2634     0.0000   -36.7148   -14.1383    -1.9069     2.8932    20.6309    41.2644     0.6541    14.6339    14.6332     0.0007     1.4459     1.5020     1.0000     2.400
    112    -0.0001     0.9993     0.1818     10.228    256.000 259617.000     10.000    41.2634     0.0000   -36.5653   -14.1383    -1.8933     2.8874    20.6309    41.2644     0.6541    14.6339    14.6332     0.0007     1.4465     1.5014     1.0000     2.400
    113    -0.0000     1.0002     0.1841     10.219    246.000 259617.000     10.000    41.2634     0.0000   -36.4162   -14.1619    -1.8938     2.8936    20.6309    41.2644     0.6552    14.6339    14.6332     0.0007     1.4467     1.5004     1.0000     2.400
    114    -0.0008     0.9996     0.1859     10.248    233.000 259617.000     10.000    41.2634     0.0000   -36.2673   -14.1619    -1.8652     2.8841    20.6309    41.2644     0.6552    14.6339    14.6332     0.0007     1.4470     1.4998     1.0000     2.400
    115     0.0001     0.9998     0.1879     10.268    223.000 259617.000     10.000    41.2634     0.0000   -36.1187   -14.1757    -1.8961     2.9035    20.6309    41.2644     0.6558    14.6339    14.6332     0.0007     1.4464     1.5032     1.0000     2.400
    116     0.0004     1.0000     0.1900     10.277    210.000 259617.000     10.000    41.2634     0.0000   -35.9704   -14.1894    -1.9114     2.8994    20.6309    41.2644     0.6564    14.6339    14.6332     0.0007     1.4465     1.5024     1.0000     2.400
    117     0.0001     1.0000     0.1920     10.263    212.000 259617.000     10.000    41.2634     0.0000   -35.8223   -14.1993    -1.8966     2.8961    20.6309    41.2644     0.6569    14.6339    14.6332     0.0007     1.4461     1.5032     1.0000     2.400
    118    -0.0006     1.0000     0.1940     10.263    221.000 259617.000     10.000    41.2634     0.0000   -35.6745   -14.2101    -1.8685     2.8929    20.6309    41.2644     0.6574    14.6339    14.6332     0.0007     1.4466     1.5027     1.0000     2.400
    119    -0.0012     1.0000     0.1960     10.264    243.000 259617.000     10.000    41.2634     0.0000   -35.5270   -14.2209    -1.8400     2.8941    20.6309    41.2644     0.6579    14.6339    14.6332     0.0007     1.4466     1.5025     1.0000     2.400
    120    -0.0011     1.0000     0.1980     10.283    214.000 259617.000     10.000    41.2634     0.0000   -35.3798   -14.2318    -1.8448     2.8970    20.6309    41.2644     0.6584    14.6339    14.6332     0.0007     1.4472     1.5016     1.0000     2.400
    121     0.0000     1.0000     0.2000     10.242    256.000 259617.000     10.000    41.2634     0.0000   -35.2329   -14.2426    -1.8970     2.8921    20.6309    41.2644     0.6589    14.6339    14.6332     0.0007     1.4465     1.5029     1.0000     2.400
    122    -0.0023     1.0001     0.2020     10.247    268.000 259617.000     10.000    41.2634     0.0000   -35.0862   -14.2544    -1.7957     2.8831    20.6309    41.2644     0.6594    14.6339    14.6332     0.0007     1.4463     1.5006     1.0000     2.400
    123     0.0001     1.0000     0.2040     10.270    274.000 259617.000     10.000    41.2634     0.0000   -34.9398   -14.2642    -1.8974     2.8973    20.6309    41.2644     0.6599    14.6339    14.6332     0.0007     1.4464     1.5026     1.0000     2.400
    124     0.0008     1.0001     0.2060     10.266    246.000 259617.000     10.000    41.2634     0.0000   -34.7938   -14.2770    -1.9314     2.8929    20.6309    41.2644     0.6605    14.6339    14.6332     0.0007     1.4464     1.5019     1.0000     2.400
    125    -0.0000     0.9999     0.2080     10.283    290.000 259617.000     10.000    41.2634     0.0000   -34.6480   -14.2859    -1.8915     2.8985    20.6309    41.2644     0.6609    14.6339    14.6332     0.0007     1.4465     1.5016     1.0000     2.400
    126    -0.0020     1.0000     0.2100     10.254    286.000 259617.000     10.000    41.2634     0.0000   -34.5025   -14.2987    -1.8080     2.8900    20.6309    41.2644     0.6615    14.6339    14.6332     0.0007     1.4471     1.5015     1.0000     2.400
    127     0.0000     1.0000     0.2120     10.218    338.000 259617.000     10.000    41.2634     0.0000   -34.3572   -14.3095    -1.8919     2.9019    20.6309    41.2644     0.6620    14.6339    14.6332     0.0007     1.4471     1.5031     1.0000     2.400
    128    -0.0023     1.0000     0.2140     10.266    381.000 259617.000     10.000    41.2634     0.0000   -34.2123   -14.3213    -1.7893     2.8999    20.6309    41.2644     0.6625    14.6339    14.6332     0.0007     1.4473     1.5019     1.0000     2.400
    129    -0.0003     1.0001     0.2160     10.290    509.000 259617.000     10.000    41.2634     0.0000   -34.0677   -14.3341    -1.8894     2.8801    20.6309    41.2644     0.6631    14.6339    14.6332     0.0007     1.4472     1.5029     1.0000     2.400
    130    -0.0001     1.0000     0.2180     10.244    659.000 259617.000     10.000    41.2634     0.0000   -33.9234   -14.3450    -1.8921     2.8865    20.6309    41.2644     0.6636    14.6339    14.6332     0.0007     1.4470     1.5028     1.0000     2.400
    131    -0.0012     1.0000     0.2200     10.271    816.000 259617.000     10.000    41.2634     0.0000   -33.7793   -14.3568    -1.8460     2.8861    20.6309    41.2644     0.6641    14.6339    14.6332     0.0007     1.4470     1.5034     1.0000     2.400
    132    -0.0000     1.0000     0.2220     10.290   1063.000 259617.000     10.000    41.2634     0.0000   -33.6356   -14.3696    -1.8934     2.8928    20.6309    41.2644     0.6647    14.6339    14.6332     0.0007     1.4474     1.5041     1.0000     2.400
    133    -0.0007     1.0000     0.2240     10.259   1534.000 259617.000     10.000    41.2634     0.0000   -33.4921   -14.3804    -1.8700     2.8833    20.6309    41.2644     0.6652    14.6339    14.6332     0.0007     1.4478     1.5024     1.0000     2.400
    134    -0.0012     1.0000     0.2260     10.286   2857.000 259617.000     10.000    41.2634     0.0000   -33.3490   -14.3932    -1.8454     2.8881    20.6309    41.2644     0.6658    14.6339    14.6332     0.0007     1.4473     1.5021     1.0000     2.400
    135    -0.0017     1.0000     0.2280     10.240   6418.000 259617.000     10.000    41.2634     0.0000   -33.2062   -14.4060    -1.8207     2.8927    20.6309    41.2644     0.6664    14.6339    14.6332     0.0007     1.4475     1.5010     1.0000     2.400
    136    -0.0017     1.0000     0.2300     10.282  12851.000 259617.000     10.000    41.2634     0.0000   -33.0636   -14.4178    -1.8271     2.8789    20.6309    41.2644     0.6670    14.6339    14.6332     0.0007     1.4473     1.5009     1.0000     2.400
    137    -0.0017     1.0000     0.2320     10.273  25447.000 259617.000     10.000    41.2634     0.0000   -32.9214   -14.4306    -1.8276     2.8815    20.6309    41.2644     0.6675    14.6339    14.6332     0.0007     1.4470     1.5023     1.0000     2.400
    138    -0.0001     1.0000     0.2340     10.252  41346.000 259617.000     10.000    41.2634     0.0000   -32.7795   -14.4424    -1.8943     2.8876    20.6309    41.2644     0.6681    14.6339    14.6332     0.0007     1.4470     1.5021     1.0000     2.400
    139    -0.0030     1.0000     0.2360     10.270  39529.000 259617.000     10.000    41.2634     0.0000   -32.6378   -14.4562    -1.7635     2.8903    20.6309    41.2644     0.6687    14.6339    14.6332     0.0007     1.4471     1.5041     1.0000     2.400
    140    -0.0000     1.0000     0.2380     10.212  25847.000 259617.000     10.000    41.2634     0.0000   -32.4965   -14.4690    -1.8927     2.8955    20.6309    41.2644     0.6693    14.6339    14.6332     0.0007     1.4473     1.5030     1.0000     2.400
    141     0.0011     1.0000     0.2400     10.275  15121.000 259617.000     10.000    41.2634     0.0000   -32.3555   -14.4808    -1.9422     2.8922    20.6309    41.2644     0.6699    14.6339    14.6332     0.0007     1.4477     1.5028     1.0000     2.400
    142    -0.0001     1.0001     0.2420     10.252   9068.000 259617.000     10.000    41.2634     0.0000   -32.2148   -14.4955    -1.8931     2.8911    20.6309    41.2644     0.6705    14.6339    14.6332     0.0007     1.4478     1.5019     1.0000     2.400
    143    -0.0020     0.9999     0.2440     10.264   5927.000 259617.000     10.000    41.2634     0.0000   -32.0744   -14.5064    -1.8100     2.8869    20.6309    41.2644     0.6710    14.6339    14.6332     0.0007     1.4475     1.5018     1.0000     2.400
    144    -0.0001     1.0000     0.2460     10.299   3377.000 259617.000     10.000    41.2634     0.0000   -31.9344   -14.5211    -1.8915     2.8917    20.6309    41.2644     0.6717    14.6339    14.6332     0.0007     1.4471     1.5028     1.0000     2.400
    145    -0.0007     1.0000     0.2480     10.244   1993.000 259617.000     10.000    41.2634     0.0000   -31.7946   -14.5339    -1.8651     2.8959    20.6309    41.2644     0.6723    14.6339    14.6332     0.0007     1.4471     1.5023     1.0000     2.400
    146    -0.0002     1.0000     0.2500     10.260   1372.000 259617.000     10.000    41.2634     0.0000   -31.6551   -14.5467    -1.8861     2.8894    20.6309    41.2644     0.6729    14.6339    14.6332     0.0007     1.4473     1.5028     1.0000     2.400
    147     0.0000     1.0000     0.2520     10.254    864.000 259617.000     10.000    41.2634     0.0000   -31.5160   -14.5605    -1.8975     2.8899    20.6309    41.2644     0.6735    14.6339    14.6332     0.0007     1.4471     1.5027     1.0000     2.400
    148    -0.0026     1.0001     0.2540     10.276    616.000 259617.000     10.000    41.2634     0.0000   -31.3772   -14.5753    -1.7866     2.8907    20.6309    41.2644     0.6742    14.6339    14.6332     0.0007     1.4477     1.5019     1.0000     2.400
    149    -0.0020     0.9999     0.2560     10.289    502.000 259617.000     10.000    41.2634     0.0000   -31.2387   -14.5871    -1.8057     2.8970    20.6309    41.2644     0.6747    14.6339    14.6332     0.0007     1.4479     1.5031     1.0000     2.400
    150    -0.0019     1.0000     0.2580     10.251    377.000 259617.000     10.000    41.2634     0.0000   -31.1005   -14.6018    -1.8161     2.8900    20.6309    41.2644     0.6754    14.6339    14.6332     0.0007     1.4476     1.5031     1.0000     2.400
    151     0.0001     1.0000     0.2600     10.257    375.000 259617.000     10.000    41.2634     0.0000   -30.9627   -14.6156    -1.8988     2.8912    20.6309    41.2644     0.6761    14.6339    14.6332     0.0007     1.4472     1.5032     1.0000     2.400
    152    -0.0002     1.0000     0.2620     10.283    343.000 259617.000     10.000    41.2634     0.0000   -30.8251   -14.6294    -1.8916     2.8856    20.6309    41.2644     0.6767    14.6339    14.6332     0.0007     1.4481     1.5031     1.0000     2.400
    153    -0.0016     1.0000     0.2640     10.236    364.000 259617.000     10.000    41.2634     0.0000   -30.6879   -14.6442    -1.8294     2.8916    20.6309    41.2644     0.6774    14.6339    14.6332     0.0007     1.4477     1.5030     1.0000     2.400
    154    -0.0000     1.0000     0.2660     10.274    298.000 259617.000     10.000    41.2634     0.0000   -30.5510   -14.6570    -1.8944     2.8928    20.6309    41.2644     0.6780    14.6339    14.6332     0.0007     1.4478     1.5049     1.0000     2.400
    155    -0.0014     1.0001     0.2680     10.286    281.000 259617.000     10.000    41.2634     0.0000   -30.4144   -14.6727    -1.8396     2.8882    20.6309    41.2644     0.6787    14.6339    14.6332     0.0007     1.4476     1.5033     1.0000     2.400
    156    -0.0000     1.0000     0.2700     10.295    252.000 259617.000     10.000    41.2634     0.0000   -30.2782   -14.6855    -1.8951     2.8924    20.6309    41.2644     0.6793    14.6339    14.6332     0.0007     1.4472     1.5049     1.0000     2.400
    157    -0.0000     1.0001     0.2720     10.256    300.000 259617.000     10.000    41.2634     0.0000   -30.1422   -14.7013    -1.8944     2.8896    20.6309    41.2644     0.6800    14.6339    14.6332     0.0007     1.4477     1.5052     1.0000     2.400
    158    -0.0000     1.0000     0.2740     10.207    274.000 259617.000     10.000    41.2634     0.0000   -30.0066   -14.7150    -1.8949     2.8903    20.6309    41.2644     0.6806    14.6339    14.6332     0.0007     1.4482     1.5060     1.0000     2.400
    159    -0.0002     1.0000     0.2760     10.277    275.000 259617.000     10.000    41.2634     0.0000   -29.8714   -14.7298    -1.8833     2.8958    20.6309    41.2644     0.6813    14.6339    14.6332     0.0007     1.4476     1.5042     1.0000     2.400
    160     0.0008     1.0000     0.2780     10.274    238.000 259617.000     10.000    41.2634     0.0000   -29.7364   -14.7436    -1.9303     2.8887    20.6309    41.2644     0.6819    14.6339    14.6332     0.0007     1.4480     1.5024     1.0000     2.400
    161     0.0001     1.0000     0.2800     10.283    260.000 259617.000     10.000    41.2634     0.0000   -29.6018   -14.7593    -1.8995     2.8946    20.6309    41.2644     0.6827    14.6339    14.6332     0.0007     1.4479     1.5043     1.0000     2.400
    162    -0.0002     1.0000     0.2820     10.280    209.000 259617.000     10.000    41.2634     0.0000   -29.4675   -14.7741    -1.8913     2.8815    20.6309    41.2644     0.6833    14.6339    14.6332     0.0007     1.4482     1.5041     1.0000     2.400
    163    -0.0021     0.9999     0.2840     10.227    261.000 259617.000     10.000    41.2634     0.0000   -29.3335   -14.7879    -1.8106     2.8868    20.6309    41.2644     0.6840    14.6339    14.6332     0.0007     1.4482     1.5035     1.0000     2.400
    164     0.0002     1.0000     0.2860     10.251    251.000 259617.000     10.000    41.2634     0.0000   -29.1999   -14.8036    -1.8993     2.9028    20.6309    41.2644     0.6847    14.6339    14.6332     0.0007     1.4481     1.5062     1.0000     2.400
    165    -0.0027     1.0000     0.2880     10.318    271.000 259617.000     10.000    41.2634     0.0000   -29.0666   -14.8184    -1.7811     2.8954    20.6309    41.2644     0.6854    14.6339    14.6332     0.0007     1.4482     1.5038     1.0000     2.400
    166    -0.0000     1.0001     0.2900     10.275    292.000 259617.000     10.000    41.2634     0.0000   -28.9336   -14.8351    -1.8927     2.8970    20.6309    41.2644     0.6862    14.6339    14.6332     0.0007     1.4483     1.5061     1.0000     2.400
    167     0.0000     0.9999     0.2920     10.267    248.000 259617.000     10.000    41.2634     0.0000   -28.8010   -14.8479    -1.8924     2.8992    20.6309    41.2644     0.6867    14.6339    14.6332     0.0007     1.4479     1.5077     1.0000     2.400
    168     0.0002     1.0001     0.2940     10.246    222.000 259617.000     10.000    41.2634     0.0000   -28.6687   -14.8656    -1.9034     2.8967    20.6309    41.2644     0.6876    14.6339    14.6332     0.0007     1.4482     1.5056     1.0000     2.400
    169    -0.0002     1.0000     0.2960     10.229    232.000 259617.000     10.000    41.2634     0.0000   -28.5367   -14.8794    -1.8913     2.8842    20.6309    41.2644     0.6882    14.6339    14.6332     0.0007     1.4480     1.5062     1.0000     2.400
    170     0.0000     1.0001     0.2981     10.261    217.000 259617.000     10.000    41.2634     0.0000   -28.4051   -14.8981    -1.8976     2.8898    20.6309    41.2644     0.6890    14.6339    14.6332     0.0007     1.4486     1.5059     1.0000     2.400
    171    -0.0022     0.9998     0.2999     10.226    227.000 259617.000     10.000    41.2634     0.0000   -28.2738   -14.9089    -1.8073     2.8823    20.6309    41.2644     0.6895    14.6339    14.6332     0.0007     1.4483     1.5053     1.0000     2.400
    172    -0.0000     1.0002     0.3021     10.249    207.000 259617.000     10.000    41.2634     0.0000   -28.1428   -14.9306    -1.8975     2.8850    20.6309    41.2644     0.6905    14.6339    14.6332     0.0007     1.4481     1.5055     1.0000     2.400
    173    -0.0002     0.9998     0.3039     10.257    188.000 259617.000     10.000    41.2634     0.0000   -28.0122   -14.9404    -1.8861     2.8972    20.6309    41.2644     0.6910    14.6339    14.6332     0.0007     1.4484     1.5063     1.0000     2.400
    174     0.0009     1.0001     0.3061     10.265    209.000 259617.000     10.000    41.2634     0.0000   -27.8819   -14.9611    -1.9277     2.9001    20.6309    41.2644     0.6919    14.6339    14.6332     0.0007     1.4486     1.5062     1.0000     2.400
    175     0.0001     0.9998     0.3079     10.258    216.000 259617.000     10.000    41.2634     0.0000   -27.7519   -14.9719    -1.8998     2.8904    20.6309    41.2644     0.6924    14.6339    14.6332     0.0007     1.4485     1.5073     1.0000     2.400
    176    -0.0021     1.0002     0.3101     10.251    204.000 259617.000     10.000    41.2634     0.0000   -27.6223   -14.9946    -1.8156     2.8822    20.6309    41.2644     0.6935    14.6339    14.6332     0.0007     1.4486     1.5063     1.0000     2.400
    177    -0.0001     0.9998     0.3119     10.239    193.000 259617.000     10.000    41.2634     0.0000   -27.4930   -15.0034    -1.8916     2.8869    20.6309    41.2644     0.6939    14.6339    14.6332     0.0007     1.4480     1.5045     1.0000     2.400
    178    -0.0010     1.0002     0.3141     10.268    185.000 259617.000     10.000    41.2634     0.0000   -27.3641   -15.0270    -1.8538     2.8920    20.6309    41.2644     0.6950    14.6339    14.6332     0.0007     1.4487     1.5053     1.0000     2.400
    179    -0.0001     0.9998     0.3159     10.232    178.000 259617.000     10.000    41.2634     0.0000   -27.2355   -15.0359    -1.8908     2.8934    20.6309    41.2644     0.6954    14.6339    14.6332     0.0007     1.4485     1.5079     1.0000     2.400
    180    -0.0001     1.0003     0.3181     10.278    185.000 259617.000     10.000    41.2634     0.0000   -27.1072   -15.0605    -1.8936     2.8892    20.6309    41.2644     0.6965    14.6339    14.6332     0.0007     1.4486     1.5073     1.0000     2.400
    181    -0.0001     0.9997     0.3199     10.293    174.000 259617.000     10.000    41.2634     0.0000   -26.9793   -15.0684    -1.8945     2.8802    20.6309    41.2644     0.6969    14.6339    14.6332     0.0007     1.4482     1.5053     1.0000     2.400
    182    -0.0000     1.0002     0.3221     10.310    185.000 259617.000     10.000    41.2634     0.0000   -26.8517   -15.0920    -1.8945     2.8919    20.6309    41.2644     0.6980    14.6339    14.6332     0.0007     1.4481     1.5061     1.0000     2.400
    183    -0.0013     0.9999     0.3239     10.259    172.000 259617.000     10.000    41.2634     0.0000   -26.7244   -15.1038    -1.8473     2.8852    20.6309    41.2644     0.6985    14.6339    14.6332     0.0007     1.4486     1.5053     1.0000     2.400
    184    -0.0000     1.0002     0.3261     10.260    188.000 259617.000     10.000    41.2634     0.0000   -26.5975   -15.1255    -1.8924     2.8940    20.6309    41.2644     0.6995    14.6339    14.6332     0.0007     1.4485     1.5094     1.0000     2.400
    185    -0.0011     0.9998     0.3279     10.238    214.000 259617.000     10.000    41.2634     0.0000   -26.4710   -15.1373    -1.8557     2.8816    20.6309    41.2644     0.7000    14.6339    14.6332     0.0007     1.4487     1.5070     1.0000     2.400
    186     0.0001     1.0002     0.3301     10.256    206.000 259617.000     10.000    41.2634     0.0000   -26.3448   -15.1599    -1.8995     2.8863    20.6309    41.2644     0.7011    14.6339    14.6332     0.0007     1.4489     1.5095     1.0000     2.400
    187    -0.0001     0.9998     0.3319     10.232    185.000 259617.000     10.000    41.2634     0.0000   -26.2189   -15.1698    -1.8905     2.8951    20.6309    41.2644     0.7015    14.6339    14.6332     0.0007     1.4485     1.5094     1.0000     2.400
    188    -0.0026     1.0002     0.3341     10.293    185.000 259617.000     10.000    41.2634     0.0000   -26.0933   -15.1944    -1.7937     2.8884    20.6309    41.2644     0.7027    14.6339    14.6332     0.0007     1.4480     1.5081     1.0000     2.400
    189    -0.0021     0.9999     0.3359     10.275    210.000 259617.000     10.000    41.2634     0.0000   -25.9681   -15.2062    -1.8118     2.8889    20.6309    41.2644     0.7032    14.6339    14.6332     0.0007     1.4490     1.5074     1.0000     2.400
    190     0.0001     1.0000     0.3380     10.255    206.000 259617.000     10.000    41.2634     0.0000   -25.8433   -15.2259    -1.8966     2.8946    20.6309    41.2644     0.7041    14.6339    14.6332     0.0007     1.4488     1.5084     1.0000     2.400
    191    -0.0026     1.0000     0.3400     10.253    222.000 259617.000     10.000    41.2634     0.0000   -25.7188   -15.2436    -1.7942     2.8919    20.6309    41.2644     0.7049    14.6339    14.6332     0.0007     1.4481     1.5099     1.0000     2.400
    192    -0.0033     0.9999     0.3420     10.287    184.000 259617.000     10.000    41.2634     0.0000   -25.5946   -15.2593    -1.7676     2.8869    20.6309    41.2644     0.7057    14.6339    14.6332     0.0007     1.4485     1.5072     1.0000     2.400
    193     0.0001     1.0001     0.3441     10.254    223.000 259617.000     10.000    41.2634     0.0000   -25.4708   -15.2800    -1.8967     2.8972    20.6309    41.2644     0.7066    14.6339    14.6332     0.0007     1.4486     1.5083     1.0000     2.400
    194    -0.0030     0.9999     0.3460     10.230    201.000 259617.000     10.000    41.2634     0.0000   -25.3473   -15.2938    -1.7769     2.8922    20.6309    41.2644     0.7072    14.6339    14.6332     0.0007     1.4486     1.5073     1.0000     2.400
    195     0.0000     1.0001     0.3480     10.249    184.000 259617.000     10.000    41.2634     0.0000   -25.2242   -15.3144    -1.8964     2.8903    20.6309    41.2644     0.7082    14.6339    14.6332     0.0007     1.4489     1.5062     1.0000     2.400
    196     0.0003     0.9999     0.3499     10.291    188.000 259617.000     10.000    41.2634     0.0000   -25.1014   -15.3292    -1.9085     2.8915    20.6309    41.2644     0.7089    14.6339    14.6332     0.0007     1.4488     1.5049     1.0000     2.400
# Sum of Counts = 241068
# Center of Mass = 0.216158+/-0.000637
# Full Width Half-Maximum = 0.132614+/-0.000436
# 12:21:33 AM  3/13/2016   scan completed.
